%OpenBCI Raw EEG Data
%
%Sample Rate = 200.0 Hz
%First Column = SampleIndex
%Last Column = Timestamp 
%Other Columns = EEG data in microvolts followed by Accel Data (in G) interleaved with Aux Data
0, -3669.22, -3486.37, -3700.55, -4105.90, 0.000, 0.000, 0.000, 14:30:07.346
1, -3665.98, -3497.07, -3700.63, -4118.45, 0.000, 0.000, 0.000, 14:30:07.360
2, -3661.84, -3477.43, -3700.40, -4109.59, 0.000, 0.000, 0.000, 14:30:07.361
3, -3655.99, -3468.61, -3691.92, -4103.04, 0.000, 0.000, 0.000, 14:30:07.389
4, -3646.88, -3470.90, -3681.94, -4098.64, 0.000, 0.000, 0.000, 14:30:07.390
5, -3643.77, -3461.92, -3675.80, -4087.52, 0.000, 0.000, 0.000, 14:30:07.392
6, -3640.96, -3459.61, -3673.96, -4092.06, 0.000, 0.000, 0.000, 14:30:07.392
7, -3630.79, -3446.79, -3666.32, -4070.43, 0.000, 0.000, 0.000, 14:30:07.397
8, -3637.44, -3446.14, -3671.80, -4070.71, 0.000, 0.000, 0.000, 14:30:07.397
9, -3639.91, -3452.57, -3676.18, -4073.90, 0.000, 0.000, 0.000, 14:30:07.398
10, -3635.37, -3430.91, -3658.71, -4062.81, 0.000, 0.000, 0.000, 14:30:07.398
11, -3627.36, -3435.29, -3659.41, -4055.11, 0.000, 0.000, 0.000, 14:30:07.402
12, -3623.01, -3434.97, -3661.69, -4062.44, 0.000, 0.000, 0.000, 14:30:07.403
13, -3625.41, -3430.09, -3665.36, -4072.41, 0.000, 0.000, 0.000, 14:30:07.437
14, -3618.22, -3423.67, -3654.61, -4052.53, 0.000, 0.000, 0.000, 14:30:07.446
15, -3621.21, -3418.89, -3655.37, -4052.41, 0.000, 0.000, 0.000, 14:30:07.457
16, -3611.61, -3405.30, -3640.39, -4046.81, 0.000, 0.000, 0.000, 14:30:07.457
17, -3616.59, -3413.78, -3645.92, -4047.32, 0.000, 0.000, 0.000, 14:30:07.475
18, -3606.71, -3412.67, -3643.84, -4044.26, 0.000, 0.000, 0.000, 14:30:07.476
19, -3613.87, -3419.94, -3647.50, -4055.40, 0.000, 0.000, 0.000, 14:30:07.508
20, -3612.24, -3422.31, -3645.97, -4059.85, 0.000, 0.000, 0.000, 14:30:07.509
21, -3597.81, -3408.81, -3635.69, -4061.12, 0.000, 0.000, 0.000, 14:30:07.510
22, -3594.78, -3413.01, -3622.54, -4046.22, 0.000, 0.000, 0.000, 14:30:07.510
23, -3590.29, -3414.62, -3624.24, -4039.48, 0.000, 0.000, 0.000, 14:30:07.750
24, -3598.48, -3414.05, -3626.25, -4038.30, 0.000, 0.000, 0.000, 14:30:07.750
25, -3601.32, -3412.35, -3637.81, -4049.04, 0.000, 0.000, 0.000, 14:30:07.751
26, -3605.50, -3409.11, -3636.67, -4049.91, 0.000, 0.000, 0.000, 14:30:07.752
27, -3604.74, -3408.66, -3641.94, -4047.15, 0.000, 0.000, 0.000, 14:30:07.753
28, -3611.31, -3414.45, -3649.59, -4057.06, 0.000, 0.000, 0.000, 14:30:07.753
29, -3608.18, -3419.52, -3651.49, -4059.19, 0.000, 0.000, 0.000, 14:30:07.757
30, -3608.05, -3419.12, -3651.42, -4065.63, 0.000, 0.000, 0.000, 14:30:07.757
31, -3607.93, -3423.10, -3652.87, -4061.30, 0.000, 0.000, 0.000, 14:30:07.759
32, -3612.28, -3421.18, -3652.87, -4064.58, 0.000, 0.000, 0.000, 14:30:07.759
33, -3608.46, -3424.17, -3652.01, -4057.52, 0.000, 0.000, 0.000, 14:30:07.762
34, -3607.42, -3418.35, -3652.85, -4057.54, 0.000, 0.000, 0.000, 14:30:07.767
35, -3604.57, -3415.80, -3653.51, -4066.71, 0.000, 0.000, 0.000, 14:30:07.768
36, -3615.57, -3421.31, -3658.87, -4064.95, 0.000, 0.000, 0.000, 14:30:07.769
37, -3611.43, -3418.93, -3651.58, -4046.90, 0.000, 0.000, 0.000, 14:30:07.772
38, -3609.20, -3427.50, -3655.51, -4054.71, 0.000, 0.000, 0.000, 14:30:07.773
39, -3612.97, -3432.67, -3647.38, -4062.91, 0.000, 0.000, 0.000, 14:30:07.774
40, -3597.31, -3429.50, -3645.24, -4058.94, 0.000, 0.000, 0.000, 14:30:07.775
41, -3601.51, -3431.83, -3643.26, -4055.04, 0.000, 0.000, 0.000, 14:30:07.776
42, -3607.42, -3425.48, -3648.98, -4056.07, 0.000, 0.000, 0.000, 14:30:07.776
43, -3612.15, -3427.54, -3653.04, -4054.30, 0.000, 0.000, 0.000, 14:30:07.791
44, -3616.46, -3425.45, -3659.32, -4057.89, 0.000, 0.000, 0.000, 14:30:07.792
45, -3619.19, -3418.16, -3652.48, -4058.27, 0.000, 0.000, 0.000, 14:30:07.793
46, -3617.54, -3425.45, -3647.55, -4051.39, 0.000, 0.000, 0.000, 14:30:07.805
47, -3616.39, -3415.53, -3642.62, -4056.14, 0.000, 0.000, 0.000, 14:30:07.806
48, -3618.15, -3418.61, -3647.70, -4056.96, 0.000, 0.000, 0.000, 14:30:07.806
49, -3600.19, -3406.14, -3635.06, -4045.73, 0.000, 0.000, 0.000, 14:30:07.806
50, -3590.26, -3399.25, -3632.48, -4046.64, 0.000, 0.000, 0.000, 14:30:07.806
51, -3597.69, -3397.25, -3644.10, -4035.37, 0.000, 0.000, 0.000, 14:30:07.807
52, -3590.69, -3407.54, -3632.68, -4044.33, 0.000, 0.000, 0.000, 14:30:07.807
53, -3598.26, -3403.69, -3629.68, -4041.96, 0.000, 0.000, 0.000, 14:30:07.807
54, -3592.47, -3393.76, -3630.11, -4040.44, 0.000, 0.000, 0.000, 14:30:07.808
55, -3589.33, -3392.84, -3627.55, -4045.68, 0.000, 0.000, 0.000, 14:30:07.808
56, -3587.28, -3393.26, -3631.51, -4046.63, 0.000, 0.000, 0.000, 14:30:07.808
57, -3597.54, -3413.36, -3643.05, -4046.51, 0.000, 0.000, 0.000, 14:30:07.808
58, -3606.60, -3422.07, -3645.92, -4048.97, 0.000, 0.000, 0.000, 14:30:07.809
59, -3590.65, -3422.99, -3642.65, -4049.05, 0.000, 0.000, 0.000, 14:30:07.809
60, -3597.41, -3420.85, -3641.02, -4049.72, 0.000, 0.000, 0.000, 14:30:07.809
61, -3598.73, -3416.11, -3638.28, -4042.96, 0.000, 0.000, 0.000, 14:30:07.819
62, -3605.83, -3410.97, -3644.77, -4048.77, 0.000, 0.000, 0.000, 14:30:07.820
63, -3604.78, -3410.26, -3648.18, -4048.21, 0.000, 0.000, 0.000, 14:30:07.821
64, -3614.16, -3407.95, -3646.48, -4052.97, 0.000, 0.000, 0.000, 14:30:07.822
65, -3620.85, -3412.01, -3653.97, -4060.62, 0.000, 0.000, 0.000, 14:30:07.823
66, -3612.71, -3410.03, -3646.85, -4060.47, 0.000, 0.000, 0.000, 14:30:07.824
67, -3604.80, -3408.75, -3643.78, -4056.58, 0.000, 0.000, 0.000, 14:30:07.837
68, -3603.29, -3407.65, -3642.26, -4046.87, 0.000, 0.000, 0.000, 14:30:07.838
69, -3613.31, -3418.43, -3652.96, -4054.96, 0.000, 0.000, 0.000, 14:30:07.842
70, -3602.11, -3406.55, -3642.69, -4057.09, 0.000, 0.000, 0.000, 14:30:07.842
71, -3598.86, -3403.18, -3635.76, -4045.95, 0.000, 0.000, 0.000, 14:30:07.843
72, -3607.62, -3406.98, -3638.70, -4046.89, 0.000, 0.000, 0.000, 14:30:07.844
73, -3610.50, -3409.31, -3647.77, -4053.28, 0.000, 0.000, 0.000, 14:30:07.845
74, -3613.46, -3413.15, -3646.19, -4048.46, 0.000, 0.000, 0.000, 14:30:07.846
75, -3601.52, -3402.95, -3639.40, -4038.12, 0.000, 0.000, 0.000, 14:30:07.847
76, -3590.64, -3409.39, -3630.08, -4042.57, 0.000, 0.000, 0.000, 14:30:07.848
77, -3596.41, -3414.69, -3637.36, -4052.72, 0.000, 0.000, 0.000, 14:30:07.849
78, -3596.94, -3409.11, -3638.14, -4050.43, 0.000, 0.000, 0.000, 14:30:07.849
79, -3602.41, -3411.50, -3641.02, -4043.15, 0.000, 0.000, 0.000, 14:30:07.876
80, -3600.39, -3412.77, -3642.24, -4050.00, 0.000, 0.000, 0.000, 14:30:07.876
81, -3599.12, -3408.60, -3640.95, -4037.05, 0.000, 0.000, 0.000, 14:30:07.877
82, -3585.74, -3392.24, -3629.91, -4032.41, 0.000, 0.000, 0.000, 14:30:07.877
83, -3590.06, -3392.13, -3628.10, -4034.08, 0.000, 0.000, 0.000, 14:30:07.878
84, -3578.97, -3394.50, -3629.05, -4045.99, 0.000, 0.000, 0.000, 14:30:07.878
85, -3589.33, -3397.53, -3632.12, -4047.67, 0.000, 0.000, 0.000, 14:30:07.939
86, -3590.89, -3406.27, -3638.43, -4053.73, 0.000, 0.000, 0.000, 14:30:07.939
87, -3584.81, -3397.47, -3632.10, -4041.12, 0.000, 0.000, 0.000, 14:30:07.941
88, -3600.35, -3402.69, -3638.76, -4050.62, 0.000, 0.000, 0.000, 14:30:07.942
89, -3595.35, -3397.23, -3637.93, -4034.64, 0.000, 0.000, 0.000, 14:30:07.943
90, -3595.17, -3399.71, -3635.56, -4034.02, 0.000, 0.000, 0.000, 14:30:07.943
91, -3584.97, -3404.86, -3633.58, -4032.09, 0.000, 0.000, 0.000, 14:30:07.945
92, -3590.05, -3402.19, -3633.17, -4039.94, 0.000, 0.000, 0.000, 14:30:07.946
93, -3598.26, -3407.22, -3642.27, -4047.43, 0.000, 0.000, 0.000, 14:30:07.952
94, -3604.30, -3413.21, -3644.93, -4051.09, 0.000, 0.000, 0.000, 14:30:07.953
95, -3600.17, -3413.94, -3649.43, -4051.72, 0.000, 0.000, 0.000, 14:30:07.954
96, -3606.16, -3430.11, -3651.20, -4054.55, 0.000, 0.000, 0.000, 14:30:07.954
97, -3596.82, -3419.05, -3644.71, -4055.80, 0.000, 0.000, 0.000, 14:30:07.990
98, -3593.54, -3411.95, -3633.45, -4045.77, 0.000, 0.000, 0.000, 14:30:07.997
99, -3594.18, -3406.59, -3632.33, -4046.62, 0.000, 0.000, 0.000, 14:30:08.029
100, -3596.40, -3413.56, -3636.44, -4049.02, 0.000, 0.000, 0.000, 14:30:08.030
101, -3601.76, -3415.43, -3637.23, -4060.99, 0.000, 0.000, 0.000, 14:30:08.031
102, -3599.41, -3418.59, -3640.94, -4050.52, 0.000, 0.000, 0.000, 14:30:08.031
103, -3607.32, -3423.05, -3638.57, -4054.22, 0.000, 0.000, 0.000, 14:30:08.057
104, -3603.11, -3416.47, -3640.50, -4053.25, 0.000, 0.000, 0.000, 14:30:08.059
105, -3595.72, -3410.81, -3637.90, -4044.72, 0.000, 0.000, 0.000, 14:30:08.059
106, -3588.44, -3400.12, -3632.06, -4038.05, 0.000, 0.000, 0.000, 14:30:08.060
107, -3586.70, -3398.32, -3625.84, -4031.46, 0.000, 0.000, 0.000, 14:30:08.060
108, -3582.06, -3400.24, -3623.75, -4035.83, 0.000, 0.000, 0.000, 14:30:08.060
109, -3587.63, -3403.31, -3631.80, -4036.00, 0.000, 0.000, 0.000, 14:30:08.061
110, -3589.77, -3396.91, -3631.93, -4033.72, 0.000, 0.000, 0.000, 14:30:08.070
111, -3598.21, -3394.70, -3635.12, -4038.52, 0.000, 0.000, 0.000, 14:30:08.071
112, -3593.62, -3395.11, -3634.76, -4035.29, 0.000, 0.000, 0.000, 14:30:08.071
113, -3598.95, -3395.22, -3647.47, -4030.66, 0.000, 0.000, 0.000, 14:30:08.072
114, -3601.99, -3401.61, -3642.09, -4039.79, 0.000, 0.000, 0.000, 14:30:08.074
115, -3599.55, -3406.79, -3643.12, -4046.88, 0.000, 0.000, 0.000, 14:30:08.080
116, -3601.83, -3408.44, -3645.75, -4053.35, 0.000, 0.000, 0.000, 14:30:08.080
117, -3616.30, -3414.43, -3655.21, -4055.41, 0.000, 0.000, 0.000, 14:30:08.081
118, -3605.09, -3396.86, -3644.16, -4043.08, 0.000, 0.000, 0.000, 14:30:08.082
119, -3603.44, -3396.16, -3635.29, -4039.89, 0.000, 0.000, 0.000, 14:30:08.082
120, -3609.80, -3409.74, -3640.03, -4051.60, 0.000, 0.000, 0.000, 14:30:08.083
121, -3611.84, -3416.60, -3647.61, -4048.05, 0.000, 0.000, 0.000, 14:30:08.122
122, -3605.34, -3412.72, -3642.08, -4052.04, 0.000, 0.000, 0.000, 14:30:08.123
123, -3599.70, -3411.77, -3635.67, -4041.21, 0.000, 0.000, 0.000, 14:30:08.124
124, -3611.71, -3417.65, -3643.19, -4055.65, 0.000, 0.000, 0.000, 14:30:08.124
125, -3611.91, -3414.74, -3646.57, -4045.90, 0.000, 0.000, 0.000, 14:30:08.125
126, -3606.08, -3411.12, -3633.71, -4037.77, 0.000, 0.000, 0.000, 14:30:08.126
127, -3594.02, -3404.45, -3626.03, -4034.18, 0.000, 0.000, 0.000, 14:30:08.127
128, -3601.25, -3415.98, -3632.41, -4047.70, 0.000, 0.000, 0.000, 14:30:08.128
129, -3603.84, -3419.43, -3636.06, -4059.29, 0.000, 0.000, 0.000, 14:30:08.130
130, -3598.49, -3416.45, -3634.57, -4050.34, 0.000, 0.000, 0.000, 14:30:08.130
131, -3599.92, -3403.11, -3639.59, -4050.99, 0.000, 0.000, 0.000, 14:30:08.131
132, -3593.57, -3407.75, -3639.27, -4049.95, 0.000, 0.000, 0.000, 14:30:08.131
133, -3598.14, -3406.44, -3637.30, -4045.68, 0.000, 0.000, 0.000, 14:30:08.221
134, -3599.50, -3408.92, -3638.36, -4043.10, 0.000, 0.000, 0.000, 14:30:08.222
135, -3589.65, -3403.77, -3632.27, -4045.97, 0.000, 0.000, 0.000, 14:30:08.222
136, -3593.07, -3405.08, -3634.69, -4044.13, 0.000, 0.000, 0.000, 14:30:08.223
137, -3593.18, -3403.25, -3638.71, -4039.97, 0.000, 0.000, 0.000, 14:30:08.296
138, -3590.84, -3410.00, -3636.54, -4038.98, 0.000, 0.000, 0.000, 14:30:08.297
139, -3594.65, -3405.27, -3630.43, -4036.06, 0.000, 0.000, 0.000, 14:30:08.311
140, -3592.02, -3394.07, -3633.38, -4039.99, 0.000, 0.000, 0.000, 14:30:08.312
141, -3589.26, -3404.57, -3633.24, -4038.63, 0.000, 0.000, 0.000, 14:30:08.312
142, -3585.58, -3408.52, -3636.06, -4034.71, 0.000, 0.000, 0.000, 14:30:08.313
143, -3594.14, -3411.16, -3636.36, -4045.75, 0.000, 0.000, 0.000, 14:30:08.334
144, -3601.92, -3417.09, -3649.56, -4056.05, 0.000, 0.000, 0.000, 14:30:08.334
145, -3596.64, -3407.88, -3645.70, -4045.69, 0.000, 0.000, 0.000, 14:30:08.335
146, -3586.36, -3399.81, -3630.43, -4037.21, 0.000, 0.000, 0.000, 14:30:08.335
147, -3591.98, -3402.14, -3635.87, -4029.37, 0.000, 0.000, 0.000, 14:30:08.336
148, -3603.91, -3407.65, -3643.32, -4053.42, 0.000, 0.000, 0.000, 14:30:08.337
149, -3606.74, -3412.00, -3644.76, -4057.13, 0.000, 0.000, 0.000, 14:30:08.380
150, -3599.98, -3406.26, -3632.59, -4054.41, 0.000, 0.000, 0.000, 14:30:08.381
151, -3597.91, -3416.99, -3642.18, -4058.77, 0.000, 0.000, 0.000, 14:30:08.417
152, -3605.42, -3414.03, -3644.71, -4053.40, 0.000, 0.000, 0.000, 14:30:08.418
153, -3607.51, -3407.05, -3643.27, -4054.87, 0.000, 0.000, 0.000, 14:30:08.418
154, -3599.70, -3408.81, -3641.94, -4048.90, 0.000, 0.000, 0.000, 14:30:08.418
155, -3612.14, -3411.44, -3643.19, -4052.14, 0.000, 0.000, 0.000, 14:30:08.693
156, -3610.86, -3413.29, -3636.25, -4055.23, 0.000, 0.000, 0.000, 14:30:08.693
157, -3600.85, -3410.37, -3638.62, -4039.12, 0.000, 0.000, 0.000, 14:30:08.694
158, -3600.52, -3412.11, -3639.56, -4042.57, 0.000, 0.000, 0.000, 14:30:08.694
159, -3596.82, -3406.38, -3632.81, -4033.72, 0.000, 0.000, 0.000, 14:30:08.694
160, -3599.77, -3414.95, -3635.43, -4040.28, 0.000, 0.000, 0.000, 14:30:08.695
161, -3601.82, -3411.42, -3635.55, -4046.39, 0.000, 0.000, 0.000, 14:30:08.702
162, -3593.53, -3404.24, -3625.79, -4046.95, 0.000, 0.000, 0.000, 14:30:08.703
163, -3586.87, -3404.25, -3622.62, -4038.20, 0.000, 0.000, 0.000, 14:30:08.704
164, -3587.29, -3400.33, -3630.41, -4042.03, 0.000, 0.000, 0.000, 14:30:08.704
165, -3590.93, -3400.28, -3630.62, -4035.39, 0.000, 0.000, 0.000, 14:30:08.704
166, -3587.56, -3397.80, -3630.89, -4036.32, 0.000, 0.000, 0.000, 14:30:08.704
167, -3583.93, -3392.23, -3628.21, -4038.90, 0.000, 0.000, 0.000, 14:30:08.705
168, -3580.43, -3402.33, -3628.14, -4039.81, 0.000, 0.000, 0.000, 14:30:08.705
169, -3586.81, -3403.57, -3636.05, -4039.42, 0.000, 0.000, 0.000, 14:30:08.705
170, -3588.93, -3399.91, -3640.46, -4046.64, 0.000, 0.000, 0.000, 14:30:08.705
171, -3597.25, -3411.29, -3640.63, -4049.15, 0.000, 0.000, 0.000, 14:30:08.706
172, -3595.85, -3412.93, -3650.99, -4045.02, 0.000, 0.000, 0.000, 14:30:08.706
173, -3600.15, -3406.84, -3652.20, -4052.95, 0.000, 0.000, 0.000, 14:30:08.753
174, -3608.55, -3415.37, -3650.94, -4058.88, 0.000, 0.000, 0.000, 14:30:08.754
175, -3592.28, -3411.99, -3641.26, -4051.61, 0.000, 0.000, 0.000, 14:30:08.755
176, -3614.29, -3407.42, -3656.73, -4062.80, 0.000, 0.000, 0.000, 14:30:08.756
177, -3608.85, -3404.73, -3656.73, -4056.89, 0.000, 0.000, 0.000, 14:30:08.757
178, -3604.46, -3407.69, -3648.68, -4058.01, 0.000, 0.000, 0.000, 14:30:08.758
179, -3601.79, -3415.89, -3647.31, -4054.74, 0.000, 0.000, 0.000, 14:30:08.796
180, -3611.15, -3417.58, -3651.40, -4059.71, 0.000, 0.000, 0.000, 14:30:08.797
181, -3610.91, -3416.09, -3644.41, -4052.37, 0.000, 0.000, 0.000, 14:30:08.816
182, -3608.92, -3421.97, -3651.32, -4049.42, 0.000, 0.000, 0.000, 14:30:08.817
183, -3613.86, -3419.51, -3648.83, -4045.32, 0.000, 0.000, 0.000, 14:30:08.818
184, -3621.62, -3428.72, -3649.89, -4059.29, 0.000, 0.000, 0.000, 14:30:08.818
185, -3617.27, -3421.46, -3644.79, -4052.46, 0.000, 0.000, 0.000, 14:30:08.868
186, -3626.64, -3427.52, -3657.19, -4051.82, 0.000, 0.000, 0.000, 14:30:08.869
187, -3613.29, -3420.06, -3653.70, -4061.92, 0.000, 0.000, 0.000, 14:30:08.871
188, -3616.89, -3426.60, -3663.10, -4071.97, 0.000, 0.000, 0.000, 14:30:08.871
189, -3623.74, -3426.56, -3664.15, -4068.46, 0.000, 0.000, 0.000, 14:30:08.872
190, -3612.52, -3419.66, -3651.70, -4043.33, 0.000, 0.000, 0.000, 14:30:08.873
191, -3611.73, -3412.63, -3650.91, -4047.96, 0.000, 0.000, 0.000, 14:30:08.874
192, -3605.30, -3419.82, -3644.60, -4056.84, 0.000, 0.000, 0.000, 14:30:08.874
193, -3600.86, -3413.34, -3642.58, -4046.25, 0.000, 0.000, 0.000, 14:30:08.875
194, -3596.36, -3412.62, -3640.24, -4043.51, 0.000, 0.000, 0.000, 14:30:08.876
195, -3596.79, -3399.13, -3643.05, -4045.08, 0.000, 0.000, 0.000, 14:30:08.877
196, -3606.36, -3406.22, -3647.61, -4051.41, 0.000, 0.000, 0.000, 14:30:08.877
197, -3599.29, -3410.71, -3650.25, -4045.14, 0.000, 0.000, 0.000, 14:30:08.879
198, -3591.20, -3400.65, -3630.15, -4034.33, 0.000, 0.000, 0.000, 14:30:08.880
199, -3570.86, -3388.04, -3620.30, -4027.53, 0.000, 0.000, 0.000, 14:30:08.881
200, -3576.22, -3387.58, -3620.58, -4028.95, 0.000, 0.000, 0.000, 14:30:08.901
0, -3580.48, -3397.87, -3630.97, -4037.90, 0.000, 0.000, 0.000, 14:30:08.902
1, -3591.50, -3405.66, -3642.71, -4043.45, 0.000, 0.000, 0.000, 14:30:08.908
2, -3608.37, -3414.55, -3649.88, -4050.99, 0.000, 0.000, 0.000, 14:30:08.908
3, -3607.31, -3418.57, -3648.52, -4055.18, 0.000, 0.000, 0.000, 14:30:08.922
4, -3600.28, -3411.31, -3639.14, -4051.83, 0.000, 0.000, 0.000, 14:30:08.923
5, -3601.16, -3412.96, -3638.64, -4054.39, 0.000, 0.000, 0.000, 14:30:08.923
6, -3602.37, -3409.06, -3639.40, -4054.33, 0.000, 0.000, 0.000, 14:30:08.924
7, -3602.41, -3412.77, -3636.62, -4053.03, 0.000, 0.000, 0.000, 14:30:08.925
8, -3603.72, -3413.40, -3641.41, -4051.74, 0.000, 0.000, 0.000, 14:30:08.925
9, -3607.38, -3421.94, -3646.57, -4047.11, 0.000, 0.000, 0.000, 14:30:09.418
10, -3603.69, -3417.46, -3640.86, -4045.19, 0.000, 0.000, 0.000, 14:30:09.419
11, -3603.02, -3411.05, -3640.53, -4052.52, 0.000, 0.000, 0.000, 14:30:09.452
12, -3605.45, -3413.50, -3639.74, -4050.17, 0.000, 0.000, 0.000, 14:30:09.453
13, -3607.93, -3412.96, -3645.14, -4053.46, 0.000, 0.000, 0.000, 14:30:09.454
14, -3615.69, -3418.28, -3645.75, -4049.94, 0.000, 0.000, 0.000, 14:30:09.454
15, -3608.26, -3423.32, -3645.94, -4053.90, 0.000, 0.000, 0.000, 14:30:09.983
16, -3609.29, -3417.58, -3643.43, -4042.51, 0.000, 0.000, 0.000, 14:30:09.983
17, -3603.86, -3418.43, -3639.89, -4048.82, 0.000, 0.000, 0.000, 14:30:09.985
18, -3590.00, -3405.38, -3634.64, -4043.47, 0.000, 0.000, 0.000, 14:30:09.987
19, -3588.89, -3409.58, -3630.75, -4034.39, 0.000, 0.000, 0.000, 14:30:09.988
20, -3592.36, -3413.88, -3636.49, -4043.46, 0.000, 0.000, 0.000, 14:30:09.989
21, -3589.80, -3405.83, -3638.65, -4045.98, 0.000, 0.000, 0.000, 14:30:10.006
22, -3579.41, -3399.65, -3632.57, -4034.85, 0.000, 0.000, 0.000, 14:30:10.007
23, -3591.70, -3398.53, -3637.14, -4040.09, 0.000, 0.000, 0.000, 14:30:10.008
24, -3594.52, -3403.52, -3639.58, -4034.93, 0.000, 0.000, 0.000, 14:30:10.008
25, -3590.96, -3402.70, -3634.49, -4040.33, 0.000, 0.000, 0.000, 14:30:10.009
26, -3598.78, -3408.80, -3634.78, -4042.08, 0.000, 0.000, 0.000, 14:30:10.009
27, -3591.73, -3405.18, -3628.44, -4033.81, 0.000, 0.000, 0.000, 14:30:10.010
28, -3572.93, -3386.19, -3620.54, -4026.98, 0.000, 0.000, 0.000, 14:30:10.010
29, -3578.87, -3393.40, -3622.64, -4026.66, 0.000, 0.000, 0.000, 14:30:10.012
30, -3584.80, -3391.27, -3623.97, -4030.54, 0.000, 0.000, 0.000, 14:30:10.013
31, -3600.08, -3404.79, -3639.85, -4039.34, 0.000, 0.000, 0.000, 14:30:10.014
32, -3598.51, -3409.02, -3638.65, -4037.23, 0.000, 0.000, 0.000, 14:30:10.015
33, -3586.57, -3397.57, -3624.19, -4024.80, 0.000, 0.000, 0.000, 14:30:10.021
34, -3589.18, -3397.28, -3628.40, -4033.19, 0.000, 0.000, 0.000, 14:30:10.022
35, -3590.90, -3406.47, -3630.90, -4047.94, 0.000, 0.000, 0.000, 14:30:10.023
36, -3597.01, -3415.47, -3632.92, -4048.38, 0.000, 0.000, 0.000, 14:30:10.023
37, -3603.89, -3411.41, -3635.65, -4042.81, 0.000, 0.000, 0.000, 14:30:10.024
38, -3603.99, -3403.54, -3637.16, -4037.09, 0.000, 0.000, 0.000, 14:30:10.024
39, -3602.87, -3410.59, -3637.64, -4038.78, 0.000, 0.000, 0.000, 14:30:10.026
40, -3603.80, -3414.08, -3641.13, -4042.41, 0.000, 0.000, 0.000, 14:30:10.026
41, -3599.49, -3408.70, -3637.65, -4049.31, 0.000, 0.000, 0.000, 14:30:10.027
42, -3607.70, -3415.67, -3644.87, -4055.60, 0.000, 0.000, 0.000, 14:30:10.028
43, -3615.26, -3418.48, -3651.07, -4052.15, 0.000, 0.000, 0.000, 14:30:10.029
44, -3614.13, -3416.11, -3645.53, -4042.14, 0.000, 0.000, 0.000, 14:30:10.029
45, -3594.65, -3405.22, -3627.01, -4021.60, 0.000, 0.000, 0.000, 14:30:10.033
46, -3594.63, -3398.41, -3618.49, -4023.62, 0.000, 0.000, 0.000, 14:30:10.034
47, -3590.19, -3393.46, -3623.40, -4033.50, 0.000, 0.000, 0.000, 14:30:10.035
48, -3590.23, -3392.52, -3626.42, -4032.78, 0.000, 0.000, 0.000, 14:30:10.036
49, -3578.59, -3384.94, -3623.99, -4025.50, 0.000, 0.000, 0.000, 14:30:10.038
50, -3586.09, -3387.38, -3625.14, -4035.80, 0.000, 0.000, 0.000, 14:30:10.038
51, -3587.67, -3391.05, -3625.81, -4041.52, 0.000, 0.000, 0.000, 14:30:10.116
52, -3581.91, -3384.04, -3618.95, -4042.81, 0.000, 0.000, 0.000, 14:30:10.116
53, -3580.85, -3384.28, -3622.11, -4033.49, 0.000, 0.000, 0.000, 14:30:10.613
54, -3581.04, -3381.19, -3627.04, -4040.21, 0.000, 0.000, 0.000, 14:30:10.614
55, -3587.64, -3392.44, -3625.74, -4042.87, 0.000, 0.000, 0.000, 14:30:10.617
56, -3588.55, -3397.99, -3628.62, -4038.98, 0.000, 0.000, 0.000, 14:30:10.618
57, -3581.99, -3391.51, -3628.55, -4042.24, 0.000, 0.000, 0.000, 14:30:10.620
58, -3590.57, -3397.28, -3636.29, -4050.25, 0.000, 0.000, 0.000, 14:30:10.620
59, -3597.99, -3399.34, -3645.21, -4048.12, 0.000, 0.000, 0.000, 14:30:10.675
60, -3591.13, -3392.91, -3634.85, -4043.15, 0.000, 0.000, 0.000, 14:30:10.676
61, -3594.18, -3403.24, -3637.34, -4045.64, 0.000, 0.000, 0.000, 14:30:10.681
62, -3595.17, -3398.86, -3634.89, -4045.08, 0.000, 0.000, 0.000, 14:30:10.681
63, -3606.00, -3407.90, -3640.58, -4049.42, 0.000, 0.000, 0.000, 14:30:10.681
64, -3614.02, -3416.05, -3649.57, -4051.96, 0.000, 0.000, 0.000, 14:30:10.682
65, -3600.22, -3408.05, -3642.87, -4054.04, 0.000, 0.000, 0.000, 14:30:10.697
66, -3598.21, -3408.58, -3638.80, -4052.97, 0.000, 0.000, 0.000, 14:30:10.697
67, -3590.34, -3404.52, -3633.29, -4038.45, 0.000, 0.000, 0.000, 14:30:10.707
68, -3593.87, -3414.67, -3628.52, -4034.37, 0.000, 0.000, 0.000, 14:30:10.708
69, -3597.54, -3409.75, -3631.22, -4045.22, 0.000, 0.000, 0.000, 14:30:10.708
70, -3604.98, -3418.64, -3641.04, -4046.81, 0.000, 0.000, 0.000, 14:30:10.708
71, -3604.15, -3411.75, -3633.20, -4041.60, 0.000, 0.000, 0.000, 14:30:10.723
72, -3609.27, -3414.52, -3636.42, -4042.74, 0.000, 0.000, 0.000, 14:30:10.724
73, -3601.39, -3415.79, -3632.56, -4041.09, 0.000, 0.000, 0.000, 14:30:10.725
74, -3594.48, -3414.38, -3637.01, -4046.98, 0.000, 0.000, 0.000, 14:30:10.726
75, -3602.19, -3412.13, -3634.51, -4041.36, 0.000, 0.000, 0.000, 14:30:10.727
76, -3595.56, -3413.93, -3627.28, -4043.68, 0.000, 0.000, 0.000, 14:30:10.728
77, -3587.62, -3404.78, -3630.08, -4036.23, 0.000, 0.000, 0.000, 14:30:10.730
78, -3592.19, -3403.17, -3633.85, -4035.81, 0.000, 0.000, 0.000, 14:30:10.730
79, -3600.36, -3403.86, -3641.13, -4053.65, 0.000, 0.000, 0.000, 14:30:10.731
80, -3593.38, -3405.79, -3640.74, -4041.21, 0.000, 0.000, 0.000, 14:30:10.732
81, -3593.05, -3400.49, -3637.24, -4042.40, 0.000, 0.000, 0.000, 14:30:10.758
82, -3597.06, -3402.95, -3641.89, -4044.65, 0.000, 0.000, 0.000, 14:30:10.759
83, -3602.77, -3416.80, -3644.45, -4052.28, 0.000, 0.000, 0.000, 14:30:11.143
84, -3595.44, -3414.17, -3636.78, -4044.54, 0.000, 0.000, 0.000, 14:30:11.144
85, -3586.52, -3405.80, -3631.55, -4035.48, 0.000, 0.000, 0.000, 14:30:11.147
86, -3593.97, -3405.78, -3639.00, -4046.27, 0.000, 0.000, 0.000, 14:30:11.148
87, -3596.52, -3403.04, -3636.87, -4050.42, 0.000, 0.000, 0.000, 14:30:11.149
88, -3591.51, -3400.59, -3631.80, -4045.07, 0.000, 0.000, 0.000, 14:30:11.149
89, -3594.83, -3404.97, -3631.93, -4040.84, 0.000, 0.000, 0.000, 14:30:11.254
90, -3593.97, -3412.49, -3634.08, -4040.38, 0.000, 0.000, 0.000, 14:30:11.256
91, -3609.25, -3428.01, -3643.41, -4052.62, 0.000, 0.000, 0.000, 14:30:11.258
92, -3614.60, -3417.96, -3647.75, -4049.07, 0.000, 0.000, 0.000, 14:30:11.258
93, -3608.93, -3418.09, -3641.53, -4044.84, 0.000, 0.000, 0.000, 14:30:11.259
94, -3600.24, -3418.20, -3637.33, -4049.88, 0.000, 0.000, 0.000, 14:30:11.260
95, -3603.10, -3413.84, -3634.32, -4046.10, 0.000, 0.000, 0.000, 14:30:11.340
96, -3599.41, -3410.41, -3636.94, -4046.20, 0.000, 0.000, 0.000, 14:30:11.341
97, -3608.87, -3413.34, -3643.86, -4045.75, 0.000, 0.000, 0.000, 14:30:11.343
98, -3616.75, -3423.31, -3650.92, -4050.22, 0.000, 0.000, 0.000, 14:30:11.344
99, -3612.42, -3422.61, -3648.49, -4048.30, 0.000, 0.000, 0.000, 14:30:11.345
100, -3605.56, -3415.68, -3642.92, -4043.44, 0.000, 0.000, 0.000, 14:30:11.345
101, -3596.42, -3415.52, -3644.29, -4048.01, 0.000, 0.000, 0.000, 14:30:11.360
102, -3605.25, -3413.75, -3644.02, -4057.70, 0.000, 0.000, 0.000, 14:30:11.360
103, -3600.26, -3417.08, -3648.18, -4054.56, 0.000, 0.000, 0.000, 14:30:11.361
104, -3605.32, -3415.70, -3645.56, -4057.22, 0.000, 0.000, 0.000, 14:30:11.362
105, -3593.53, -3410.36, -3641.88, -4047.63, 0.000, 0.000, 0.000, 14:30:11.362
106, -3600.13, -3417.14, -3649.36, -4047.24, 0.000, 0.000, 0.000, 14:30:11.362
107, -3614.66, -3428.01, -3656.86, -4054.55, 0.000, 0.000, 0.000, 14:30:11.363
108, -3619.22, -3423.02, -3662.69, -4056.55, 0.000, 0.000, 0.000, 14:30:11.363
109, -3603.35, -3410.58, -3650.36, -4051.66, 0.000, 0.000, 0.000, 14:30:11.364
110, -3602.05, -3412.63, -3641.71, -4052.41, 0.000, 0.000, 0.000, 14:30:11.365
111, -3610.10, -3413.06, -3641.07, -4061.11, 0.000, 0.000, 0.000, 14:30:11.365
112, -3611.96, -3416.24, -3640.59, -4051.32, 0.000, 0.000, 0.000, 14:30:11.365
113, -3610.83, -3421.41, -3652.10, -4048.96, 0.000, 0.000, 0.000, 14:30:11.385
114, -3607.79, -3406.10, -3640.09, -4045.93, 0.000, 0.000, 0.000, 14:30:11.386
115, -3612.38, -3410.81, -3643.22, -4045.14, 0.000, 0.000, 0.000, 14:30:11.387
116, -3603.41, -3407.47, -3637.83, -4045.94, 0.000, 0.000, 0.000, 14:30:11.387
117, -3599.99, -3402.36, -3639.02, -4038.48, 0.000, 0.000, 0.000, 14:30:11.388
118, -3605.75, -3402.97, -3641.90, -4044.54, 0.000, 0.000, 0.000, 14:30:11.388
119, -3603.29, -3399.82, -3644.78, -4053.58, 0.000, 0.000, 0.000, 14:30:11.402
120, -3601.70, -3408.84, -3650.07, -4057.66, 0.000, 0.000, 0.000, 14:30:11.403
121, -3592.37, -3407.62, -3639.12, -4046.83, 0.000, 0.000, 0.000, 14:30:11.406
122, -3602.77, -3411.23, -3640.71, -4055.12, 0.000, 0.000, 0.000, 14:30:11.406
123, -3602.20, -3415.90, -3637.53, -4048.14, 0.000, 0.000, 0.000, 14:30:11.407
124, -3615.18, -3417.95, -3648.97, -4050.83, 0.000, 0.000, 0.000, 14:30:11.422
125, -3600.68, -3408.60, -3638.42, -4041.26, 0.000, 0.000, 0.000, 14:30:11.448
126, -3599.29, -3403.09, -3635.39, -4049.56, 0.000, 0.000, 0.000, 14:30:11.449
127, -3605.91, -3418.08, -3642.73, -4050.21, 0.000, 0.000, 0.000, 14:30:11.451
128, -3607.17, -3420.86, -3649.81, -4048.66, 0.000, 0.000, 0.000, 14:30:11.451
129, -3590.92, -3403.88, -3629.77, -4040.16, 0.000, 0.000, 0.000, 14:30:11.451
130, -3588.84, -3405.50, -3624.53, -4033.43, 0.000, 0.000, 0.000, 14:30:11.452
131, -3594.43, -3411.43, -3632.55, -4040.57, 0.000, 0.000, 0.000, 14:30:11.473
132, -3595.79, -3404.55, -3631.86, -4042.97, 0.000, 0.000, 0.000, 14:30:11.473
133, -3598.39, -3401.46, -3631.36, -4041.05, 0.000, 0.000, 0.000, 14:30:11.474
134, -3597.20, -3410.03, -3627.81, -4046.69, 0.000, 0.000, 0.000, 14:30:11.474
135, -3595.84, -3413.49, -3630.49, -4043.29, 0.000, 0.000, 0.000, 14:30:11.475
136, -3594.63, -3406.33, -3632.48, -4034.21, 0.000, 0.000, 0.000, 14:30:11.475
137, -3597.37, -3411.81, -3634.98, -4036.80, 0.000, 0.000, 0.000, 14:30:11.545
138, -3596.60, -3409.47, -3638.91, -4040.72, 0.000, 0.000, 0.000, 14:30:11.546
139, -3591.12, -3396.97, -3630.30, -4038.62, 0.000, 0.000, 0.000, 14:30:11.546
140, -3592.53, -3401.20, -3634.37, -4035.51, 0.000, 0.000, 0.000, 14:30:11.546
141, -3582.93, -3391.22, -3629.86, -4040.03, 0.000, 0.000, 0.000, 14:30:11.547
142, -3593.68, -3398.66, -3632.19, -4045.98, 0.000, 0.000, 0.000, 14:30:11.547
143, -3606.92, -3414.30, -3649.48, -4054.59, 0.000, 0.000, 0.000, 14:30:11.582
144, -3609.53, -3411.33, -3648.17, -4050.11, 0.000, 0.000, 0.000, 14:30:11.582
145, -3597.83, -3401.89, -3638.11, -4048.17, 0.000, 0.000, 0.000, 14:30:11.583
146, -3596.46, -3406.56, -3642.39, -4048.02, 0.000, 0.000, 0.000, 14:30:11.583
147, -3597.93, -3415.07, -3645.03, -4054.81, 0.000, 0.000, 0.000, 14:30:11.584
148, -3605.65, -3417.40, -3645.91, -4059.01, 0.000, 0.000, 0.000, 14:30:11.584
149, -3590.30, -3412.50, -3633.61, -4045.16, 0.000, 0.000, 0.000, 14:30:11.590
150, -3589.67, -3412.55, -3630.11, -4045.46, 0.000, 0.000, 0.000, 14:30:11.591
151, -3596.53, -3412.29, -3643.44, -4047.31, 0.000, 0.000, 0.000, 14:30:11.592
152, -3593.24, -3410.40, -3631.60, -4050.21, 0.000, 0.000, 0.000, 14:30:11.592
153, -3592.33, -3411.37, -3635.97, -4053.20, 0.000, 0.000, 0.000, 14:30:11.593
154, -3599.17, -3411.29, -3640.85, -4059.44, 0.000, 0.000, 0.000, 14:30:11.593
155, -3601.76, -3418.05, -3639.06, -4053.22, 0.000, 0.000, 0.000, 14:30:11.606
156, -3602.63, -3423.21, -3642.51, -4047.61, 0.000, 0.000, 0.000, 14:30:11.607
157, -3606.03, -3424.39, -3638.27, -4050.86, 0.000, 0.000, 0.000, 14:30:11.607
158, -3599.72, -3410.00, -3634.75, -4055.07, 0.000, 0.000, 0.000, 14:30:11.608
159, -3591.37, -3407.24, -3634.10, -4048.68, 0.000, 0.000, 0.000, 14:30:11.608
160, -3592.63, -3402.30, -3637.42, -4047.68, 0.000, 0.000, 0.000, 14:30:11.608
161, -3590.99, -3405.07, -3637.46, -4045.50, 0.000, 0.000, 0.000, 14:30:11.661
162, -3593.37, -3411.11, -3637.92, -4037.54, 0.000, 0.000, 0.000, 14:30:11.663
163, -3599.52, -3414.63, -3640.61, -4054.83, 0.000, 0.000, 0.000, 14:30:11.664
164, -3593.55, -3407.70, -3633.73, -4045.40, 0.000, 0.000, 0.000, 14:30:11.664
165, -3586.75, -3398.39, -3626.93, -4036.51, 0.000, 0.000, 0.000, 14:30:11.665
166, -3578.86, -3396.60, -3620.76, -4037.15, 0.000, 0.000, 0.000, 14:30:11.665
167, -3581.33, -3390.81, -3618.13, -4035.80, 0.000, 0.000, 0.000, 14:30:11.769
168, -3588.28, -3395.71, -3621.40, -4043.29, 0.000, 0.000, 0.000, 14:30:11.770
169, -3596.28, -3406.08, -3637.51, -4045.17, 0.000, 0.000, 0.000, 14:30:11.770
170, -3591.40, -3401.94, -3637.20, -4043.87, 0.000, 0.000, 0.000, 14:30:11.770
171, -3596.69, -3408.35, -3634.04, -4046.43, 0.000, 0.000, 0.000, 14:30:11.771
172, -3589.88, -3406.75, -3634.49, -4041.94, 0.000, 0.000, 0.000, 14:30:11.771
173, -3593.50, -3402.29, -3630.64, -4038.91, 0.000, 0.000, 0.000, 14:30:11.892
174, -3600.81, -3407.02, -3641.27, -4049.81, 0.000, 0.000, 0.000, 14:30:11.893
175, -3612.81, -3417.74, -3649.40, -4055.84, 0.000, 0.000, 0.000, 14:30:11.907
176, -3609.29, -3431.94, -3652.26, -4053.06, 0.000, 0.000, 0.000, 14:30:11.908
177, -3606.21, -3420.53, -3650.06, -4052.67, 0.000, 0.000, 0.000, 14:30:11.908
178, -3604.09, -3413.48, -3649.06, -4050.67, 0.000, 0.000, 0.000, 14:30:11.909
179, -3607.55, -3421.42, -3657.92, -4062.15, 0.000, 0.000, 0.000, 14:30:12.127
180, -3606.48, -3423.88, -3653.32, -4074.39, 0.000, 0.000, 0.000, 14:30:12.128
181, -3606.10, -3422.69, -3650.95, -4063.39, 0.000, 0.000, 0.000, 14:30:12.163
182, -3601.27, -3416.82, -3641.73, -4055.51, 0.000, 0.000, 0.000, 14:30:12.164
183, -3602.59, -3411.80, -3641.39, -4058.82, 0.000, 0.000, 0.000, 14:30:12.164
184, -3595.46, -3404.67, -3636.71, -4048.93, 0.000, 0.000, 0.000, 14:30:12.165
185, -3593.03, -3400.33, -3641.53, -4049.20, 0.000, 0.000, 0.000, 14:30:12.200
186, -3597.84, -3418.81, -3647.91, -4053.47, 0.000, 0.000, 0.000, 14:30:12.201
187, -3599.25, -3408.99, -3641.76, -4052.79, 0.000, 0.000, 0.000, 14:30:12.203
188, -3599.95, -3419.21, -3643.72, -4057.05, 0.000, 0.000, 0.000, 14:30:12.203
189, -3596.93, -3413.15, -3640.18, -4052.01, 0.000, 0.000, 0.000, 14:30:12.204
190, -3585.75, -3411.16, -3633.71, -4046.19, 0.000, 0.000, 0.000, 14:30:12.205
191, -3589.05, -3401.97, -3633.25, -4042.16, 0.000, 0.000, 0.000, 14:30:12.232
192, -3590.51, -3404.27, -3634.52, -4035.78, 0.000, 0.000, 0.000, 14:30:12.232
193, -3599.09, -3400.26, -3634.49, -4040.41, 0.000, 0.000, 0.000, 14:30:12.232
194, -3609.44, -3403.25, -3634.62, -4042.15, 0.000, 0.000, 0.000, 14:30:12.233
195, -3606.29, -3417.38, -3640.51, -4048.03, 0.000, 0.000, 0.000, 14:30:12.233
196, -3601.34, -3411.93, -3634.95, -4044.69, 0.000, 0.000, 0.000, 14:30:12.233
197, -3594.30, -3402.37, -3643.68, -4035.40, 0.000, 0.000, 0.000, 14:30:12.234
198, -3607.15, -3407.59, -3645.90, -4049.29, 0.000, 0.000, 0.000, 14:30:12.234
199, -3601.52, -3404.94, -3643.69, -4046.96, 0.000, 0.000, 0.000, 14:30:12.235
200, -3597.49, -3393.03, -3638.49, -4041.12, 0.000, 0.000, 0.000, 14:30:12.235
0, -3590.97, -3392.44, -3637.97, -4037.34, 0.000, 0.000, 0.000, 14:30:12.235
1, -3602.61, -3401.26, -3642.62, -4038.65, 0.000, 0.000, 0.000, 14:30:12.237
2, -3595.25, -3389.26, -3631.68, -4031.14, 0.000, 0.000, 0.000, 14:30:12.237
3, -3599.59, -3400.50, -3628.45, -4038.98, 0.000, 0.000, 0.000, 14:30:12.238
4, -3595.99, -3402.88, -3635.38, -4047.30, 0.000, 0.000, 0.000, 14:30:12.238
5, -3602.74, -3404.48, -3637.30, -4046.35, 0.000, 0.000, 0.000, 14:30:12.239
6, -3611.45, -3410.80, -3647.37, -4055.45, 0.000, 0.000, 0.000, 14:30:12.239
7, -3603.37, -3410.63, -3642.02, -4046.19, 0.000, 0.000, 0.000, 14:30:12.268
8, -3598.68, -3405.31, -3638.55, -4046.02, 0.000, 0.000, 0.000, 14:30:12.268
9, -3594.66, -3405.60, -3636.66, -4030.67, 0.000, 0.000, 0.000, 14:30:12.285
10, -3600.35, -3408.52, -3637.21, -4047.53, 0.000, 0.000, 0.000, 14:30:12.285
11, -3598.76, -3402.04, -3634.41, -4037.25, 0.000, 0.000, 0.000, 14:30:12.286
12, -3593.25, -3403.50, -3640.73, -4032.99, 0.000, 0.000, 0.000, 14:30:12.286
13, -3592.89, -3403.11, -3635.88, -4046.53, 0.000, 0.000, 0.000, 14:30:12.306
14, -3605.84, -3409.72, -3646.95, -4057.51, 0.000, 0.000, 0.000, 14:30:12.307
15, -3602.17, -3416.39, -3651.86, -4052.69, 0.000, 0.000, 0.000, 14:30:12.336
16, -3592.85, -3402.32, -3637.86, -4039.03, 0.000, 0.000, 0.000, 14:30:12.336
17, -3585.95, -3403.97, -3638.92, -4038.44, 0.000, 0.000, 0.000, 14:30:12.336
18, -3594.86, -3404.15, -3634.12, -4039.00, 0.000, 0.000, 0.000, 14:30:12.336
19, -3603.26, -3414.86, -3643.69, -4055.00, 0.000, 0.000, 0.000, 14:30:12.339
20, -3602.03, -3408.11, -3644.14, -4044.69, 0.000, 0.000, 0.000, 14:30:12.340
21, -3594.86, -3402.25, -3635.19, -4040.14, 0.000, 0.000, 0.000, 14:30:12.340
22, -3611.49, -3412.57, -3650.60, -4041.63, 0.000, 0.000, 0.000, 14:30:12.340
23, -3598.87, -3407.94, -3641.19, -4034.65, 0.000, 0.000, 0.000, 14:30:12.341
24, -3599.96, -3404.34, -3635.86, -4046.68, 0.000, 0.000, 0.000, 14:30:12.342
25, -3591.49, -3410.05, -3636.51, -4038.68, 0.000, 0.000, 0.000, 14:30:12.354
26, -3596.09, -3402.16, -3636.58, -4047.45, 0.000, 0.000, 0.000, 14:30:12.354
27, -3596.92, -3401.80, -3641.38, -4041.75, 0.000, 0.000, 0.000, 14:30:12.355
28, -3593.80, -3404.58, -3635.83, -4042.63, 0.000, 0.000, 0.000, 14:30:12.355
29, -3596.33, -3402.19, -3640.92, -4039.38, 0.000, 0.000, 0.000, 14:30:12.355
30, -3602.42, -3403.19, -3642.71, -4042.73, 0.000, 0.000, 0.000, 14:30:12.356
31, -3597.73, -3404.22, -3638.95, -4040.66, 0.000, 0.000, 0.000, 14:30:12.357
32, -3596.22, -3400.01, -3634.58, -4039.06, 0.000, 0.000, 0.000, 14:30:12.357
33, -3589.20, -3409.85, -3636.01, -4043.89, 0.000, 0.000, 0.000, 14:30:12.357
34, -3595.86, -3415.26, -3637.82, -4039.41, 0.000, 0.000, 0.000, 14:30:12.358
35, -3592.32, -3406.19, -3628.43, -4040.39, 0.000, 0.000, 0.000, 14:30:12.358
36, -3593.00, -3403.95, -3625.76, -4035.96, 0.000, 0.000, 0.000, 14:30:12.358
37, -3588.82, -3403.70, -3633.65, -4045.12, 0.000, 0.000, 0.000, 14:30:12.359
38, -3587.93, -3411.16, -3639.57, -4052.42, 0.000, 0.000, 0.000, 14:30:12.360
39, -3594.14, -3400.14, -3635.93, -4040.54, 0.000, 0.000, 0.000, 14:30:12.367
40, -3591.93, -3397.93, -3629.05, -4032.52, 0.000, 0.000, 0.000, 14:30:12.367
41, -3595.36, -3408.59, -3641.46, -4039.66, 0.000, 0.000, 0.000, 14:30:12.368
42, -3596.62, -3408.73, -3635.54, -4045.30, 0.000, 0.000, 0.000, 14:30:12.368
43, -3591.44, -3409.35, -3637.13, -4040.60, 0.000, 0.000, 0.000, 14:30:12.372
44, -3582.96, -3394.91, -3629.66, -4032.79, 0.000, 0.000, 0.000, 14:30:12.372
45, -3596.58, -3402.42, -3636.69, -4042.22, 0.000, 0.000, 0.000, 14:30:12.374
46, -3596.52, -3401.23, -3637.46, -4046.34, 0.000, 0.000, 0.000, 14:30:12.374
47, -3597.03, -3408.26, -3634.79, -4041.87, 0.000, 0.000, 0.000, 14:30:12.375
48, -3592.47, -3408.39, -3630.60, -4039.65, 0.000, 0.000, 0.000, 14:30:12.375
49, -3591.61, -3409.67, -3626.42, -4042.25, 0.000, 0.000, 0.000, 14:30:12.376
50, -3601.00, -3415.00, -3634.56, -4046.10, 0.000, 0.000, 0.000, 14:30:12.376
51, -3593.32, -3411.55, -3631.40, -4055.27, 0.000, 0.000, 0.000, 14:30:12.385
52, -3597.32, -3408.06, -3632.71, -4050.06, 0.000, 0.000, 0.000, 14:30:12.385
53, -3602.51, -3410.41, -3636.06, -4052.05, 0.000, 0.000, 0.000, 14:30:12.386
54, -3607.28, -3412.48, -3641.14, -4045.01, 0.000, 0.000, 0.000, 14:30:12.386
55, -3605.10, -3417.16, -3646.01, -4054.30, 0.000, 0.000, 0.000, 14:30:12.387
56, -3604.79, -3416.59, -3637.84, -4049.43, 0.000, 0.000, 0.000, 14:30:12.387
57, -3602.81, -3417.94, -3633.95, -4052.28, 0.000, 0.000, 0.000, 14:30:12.388
58, -3597.06, -3416.77, -3635.73, -4053.94, 0.000, 0.000, 0.000, 14:30:12.388
59, -3598.63, -3408.26, -3635.27, -4051.80, 0.000, 0.000, 0.000, 14:30:12.390
60, -3591.48, -3412.54, -3637.69, -4046.17, 0.000, 0.000, 0.000, 14:30:12.390
61, -3597.00, -3413.10, -3640.93, -4047.65, 0.000, 0.000, 0.000, 14:30:12.391
62, -3600.81, -3416.02, -3643.03, -4045.68, 0.000, 0.000, 0.000, 14:30:12.391
63, -3605.88, -3427.95, -3642.66, -4051.03, 0.000, 0.000, 0.000, 14:30:12.392
64, -3606.46, -3420.95, -3647.21, -4060.40, 0.000, 0.000, 0.000, 14:30:12.392
65, -3612.86, -3419.95, -3645.13, -4049.89, 0.000, 0.000, 0.000, 14:30:12.392
66, -3606.88, -3413.14, -3643.29, -4052.91, 0.000, 0.000, 0.000, 14:30:12.393
67, -3605.71, -3418.53, -3645.20, -4053.51, 0.000, 0.000, 0.000, 14:30:12.396
68, -3600.97, -3410.84, -3644.96, -4050.49, 0.000, 0.000, 0.000, 14:30:12.397
69, -3605.66, -3407.78, -3637.38, -4048.95, 0.000, 0.000, 0.000, 14:30:12.398
70, -3607.09, -3415.97, -3644.24, -4051.29, 0.000, 0.000, 0.000, 14:30:12.398
71, -3605.52, -3412.71, -3638.80, -4052.73, 0.000, 0.000, 0.000, 14:30:12.398
72, -3598.76, -3408.49, -3638.76, -4040.54, 0.000, 0.000, 0.000, 14:30:12.399
73, -3603.25, -3411.17, -3645.41, -4043.08, 0.000, 0.000, 0.000, 14:30:12.399
74, -3598.21, -3408.56, -3649.97, -4046.18, 0.000, 0.000, 0.000, 14:30:12.399
75, -3606.29, -3418.44, -3654.28, -4052.07, 0.000, 0.000, 0.000, 14:30:12.402
76, -3608.14, -3417.35, -3649.31, -4050.05, 0.000, 0.000, 0.000, 14:30:12.402
77, -3602.10, -3407.94, -3653.45, -4053.82, 0.000, 0.000, 0.000, 14:30:12.403
78, -3605.45, -3409.15, -3654.78, -4058.23, 0.000, 0.000, 0.000, 14:30:12.403
79, -3593.89, -3407.85, -3643.56, -4050.53, 0.000, 0.000, 0.000, 14:30:12.403
80, -3593.47, -3400.05, -3637.83, -4046.49, 0.000, 0.000, 0.000, 14:30:12.404
81, -3596.56, -3407.50, -3644.16, -4043.59, 0.000, 0.000, 0.000, 14:30:12.404
82, -3595.00, -3409.03, -3641.77, -4043.98, 0.000, 0.000, 0.000, 14:30:12.405
83, -3586.32, -3409.63, -3636.95, -4036.80, 0.000, 0.000, 0.000, 14:30:12.405
84, -3584.91, -3403.59, -3626.19, -4034.01, 0.000, 0.000, 0.000, 14:30:12.405
85, -3588.91, -3415.71, -3633.62, -4042.31, 0.000, 0.000, 0.000, 14:30:12.406
86, -3602.68, -3414.20, -3645.92, -4057.59, 0.000, 0.000, 0.000, 14:30:12.406
87, -3607.73, -3413.38, -3648.52, -4063.52, 0.000, 0.000, 0.000, 14:30:12.407
88, -3604.61, -3413.26, -3638.00, -4051.34, 0.000, 0.000, 0.000, 14:30:12.407
89, -3600.98, -3415.71, -3647.11, -4047.44, 0.000, 0.000, 0.000, 14:30:12.410
90, -3605.02, -3422.20, -3641.45, -4049.16, 0.000, 0.000, 0.000, 14:30:12.410
91, -3602.38, -3412.41, -3644.61, -4045.91, 0.000, 0.000, 0.000, 14:30:12.418
92, -3601.95, -3415.47, -3644.44, -4050.17, 0.000, 0.000, 0.000, 14:30:12.419
93, -3604.04, -3415.18, -3648.54, -4048.60, 0.000, 0.000, 0.000, 14:30:12.419
94, -3600.69, -3418.30, -3644.32, -4048.75, 0.000, 0.000, 0.000, 14:30:12.420
95, -3598.76, -3405.29, -3643.77, -4047.38, 0.000, 0.000, 0.000, 14:30:12.420
96, -3598.09, -3408.02, -3648.15, -4056.10, 0.000, 0.000, 0.000, 14:30:12.420
97, -3604.43, -3408.66, -3639.63, -4055.60, 0.000, 0.000, 0.000, 14:30:12.421
98, -3590.73, -3406.82, -3636.81, -4051.73, 0.000, 0.000, 0.000, 14:30:12.421
99, -3597.83, -3402.88, -3633.07, -4051.77, 0.000, 0.000, 0.000, 14:30:12.422
100, -3590.00, -3396.01, -3620.46, -4042.10, 0.000, 0.000, 0.000, 14:30:12.422
101, -3584.15, -3390.84, -3628.14, -4043.47, 0.000, 0.000, 0.000, 14:30:12.422
102, -3589.19, -3396.78, -3634.32, -4052.52, 0.000, 0.000, 0.000, 14:30:12.422
103, -3589.98, -3396.77, -3635.15, -4049.35, 0.000, 0.000, 0.000, 14:30:12.424
104, -3593.10, -3403.16, -3638.35, -4046.76, 0.000, 0.000, 0.000, 14:30:12.425
105, -3592.93, -3398.53, -3636.15, -4039.26, 0.000, 0.000, 0.000, 14:30:12.425
106, -3592.42, -3392.54, -3628.61, -4030.85, 0.000, 0.000, 0.000, 14:30:12.426
107, -3585.49, -3395.21, -3631.47, -4025.79, 0.000, 0.000, 0.000, 14:30:12.426
108, -3590.44, -3399.23, -3638.46, -4036.36, 0.000, 0.000, 0.000, 14:30:12.426
109, -3586.09, -3401.27, -3630.36, -4039.44, 0.000, 0.000, 0.000, 14:30:12.430
110, -3597.94, -3412.01, -3639.48, -4052.26, 0.000, 0.000, 0.000, 14:30:12.430
111, -3581.62, -3406.67, -3629.61, -4042.67, 0.000, 0.000, 0.000, 14:30:12.436
112, -3589.51, -3392.78, -3629.92, -4034.33, 0.000, 0.000, 0.000, 14:30:12.436
113, -3594.00, -3392.25, -3635.25, -4033.03, 0.000, 0.000, 0.000, 14:30:12.437
114, -3597.54, -3411.67, -3646.63, -4045.32, 0.000, 0.000, 0.000, 14:30:12.437
115, -3594.97, -3417.96, -3646.38, -4049.73, 0.000, 0.000, 0.000, 14:30:12.438
116, -3602.03, -3421.03, -3640.32, -4049.25, 0.000, 0.000, 0.000, 14:30:12.438
117, -3601.33, -3419.47, -3638.74, -4054.71, 0.000, 0.000, 0.000, 14:30:12.439
118, -3614.70, -3421.91, -3648.70, -4047.54, 0.000, 0.000, 0.000, 14:30:12.439
119, -3611.53, -3413.74, -3641.01, -4048.78, 0.000, 0.000, 0.000, 14:30:12.441
120, -3603.97, -3420.94, -3638.52, -4046.74, 0.000, 0.000, 0.000, 14:30:12.442
121, -3608.46, -3417.01, -3637.74, -4044.71, 0.000, 0.000, 0.000, 14:30:12.457
122, -3611.08, -3426.34, -3647.23, -4054.24, 0.000, 0.000, 0.000, 14:30:12.457
123, -3605.13, -3417.01, -3640.24, -4048.47, 0.000, 0.000, 0.000, 14:30:12.458
124, -3603.57, -3409.12, -3642.73, -4049.61, 0.000, 0.000, 0.000, 14:30:12.458
125, -3605.50, -3409.96, -3642.71, -4040.25, 0.000, 0.000, 0.000, 14:30:12.460
126, -3616.85, -3413.27, -3640.54, -4053.55, 0.000, 0.000, 0.000, 14:30:12.461
127, -3617.77, -3412.65, -3648.59, -4053.05, 0.000, 0.000, 0.000, 14:30:12.468
128, -3607.25, -3409.42, -3640.54, -4041.99, 0.000, 0.000, 0.000, 14:30:12.469
131, -3606.83, -3401.75, -3636.55, -4028.92, 0.000, 0.000, 0.000, 14:30:12.470
132, -3598.16, -3403.50, -3639.95, -4038.16, 0.000, 0.000, 0.000, 14:30:12.470
133, -3594.70, -3402.14, -3630.22, -4030.38, 0.000, 0.000, 0.000, 14:30:12.471
134, -3595.39, -3397.96, -3628.54, -4029.89, 0.000, 0.000, 0.000, 14:30:12.471
135, -3596.97, -3396.13, -3629.55, -4042.22, 0.000, 0.000, 0.000, 14:30:12.471
136, -3589.27, -3393.26, -3626.01, -4037.38, 0.000, 0.000, 0.000, 14:30:12.471
137, -3597.55, -3405.00, -3635.67, -4041.99, 0.000, 0.000, 0.000, 14:30:12.472
138, -3591.43, -3409.11, -3624.33, -4038.55, 0.000, 0.000, 0.000, 14:30:12.472
139, -3584.33, -3404.35, -3619.93, -4033.84, 0.000, 0.000, 0.000, 14:30:12.473
140, -3582.58, -3406.18, -3622.04, -4036.10, 0.000, 0.000, 0.000, 14:30:12.473
141, -3585.73, -3405.25, -3619.05, -4039.43, 0.000, 0.000, 0.000, 14:30:12.474
142, -3595.17, -3405.50, -3622.33, -4036.21, 0.000, 0.000, 0.000, 14:30:12.474
143, -3599.99, -3414.70, -3624.44, -4035.75, 0.000, 0.000, 0.000, 14:30:12.474
144, -3581.03, -3403.86, -3616.00, -4026.69, 0.000, 0.000, 0.000, 14:30:12.475
145, -3595.09, -3412.48, -3619.32, -4039.85, 0.000, 0.000, 0.000, 14:30:12.475
146, -3603.09, -3419.61, -3625.37, -4051.32, 0.000, 0.000, 0.000, 14:30:12.475
147, -3608.33, -3426.93, -3632.08, -4059.44, 0.000, 0.000, 0.000, 14:30:12.476
148, -3596.60, -3424.45, -3627.94, -4048.19, 0.000, 0.000, 0.000, 14:30:12.476
149, -3601.47, -3419.22, -3629.28, -4045.76, 0.000, 0.000, 0.000, 14:30:12.476
150, -3606.03, -3409.78, -3635.40, -4035.55, 0.000, 0.000, 0.000, 14:30:12.477
151, -3598.60, -3406.63, -3626.87, -4024.64, 0.000, 0.000, 0.000, 14:30:12.478
152, -3589.93, -3406.04, -3625.09, -4025.20, 0.000, 0.000, 0.000, 14:30:12.479
153, -3603.75, -3415.39, -3630.04, -4032.18, 0.000, 0.000, 0.000, 14:30:12.488
154, -3597.84, -3411.15, -3629.88, -4040.79, 0.000, 0.000, 0.000, 14:30:12.488
155, -3590.15, -3403.14, -3619.67, -4037.84, 0.000, 0.000, 0.000, 14:30:12.489
156, -3602.77, -3411.36, -3639.67, -4039.94, 0.000, 0.000, 0.000, 14:30:12.489
157, -3591.48, -3407.88, -3636.17, -4035.27, 0.000, 0.000, 0.000, 14:30:12.490
158, -3600.15, -3406.29, -3645.12, -4044.75, 0.000, 0.000, 0.000, 14:30:12.490
159, -3599.77, -3401.83, -3636.23, -4028.26, 0.000, 0.000, 0.000, 14:30:12.490
160, -3590.94, -3397.88, -3629.72, -4031.68, 0.000, 0.000, 0.000, 14:30:12.491
161, -3595.80, -3403.30, -3637.03, -4041.10, 0.000, 0.000, 0.000, 14:30:12.491
162, -3593.31, -3403.77, -3638.65, -4039.54, 0.000, 0.000, 0.000, 14:30:12.491
163, -3593.39, -3405.40, -3627.88, -4036.96, 0.000, 0.000, 0.000, 14:30:12.492
164, -3586.81, -3389.33, -3629.42, -4036.62, 0.000, 0.000, 0.000, 14:30:12.492
165, -3595.39, -3399.74, -3635.50, -4037.23, 0.000, 0.000, 0.000, 14:30:12.492
166, -3605.40, -3402.91, -3638.61, -4041.09, 0.000, 0.000, 0.000, 14:30:12.493
59, -3610.06, -3404.84, -3643.39, -4038.30, 0.000, 0.000, 0.000, 14:30:12.501
60, -3611.19, -3413.89, -3638.82, -4040.07, 0.000, 0.000, 0.000, 14:30:12.501
61, -3604.09, -3413.95, -3636.57, -4041.22, 0.000, 0.000, 0.000, 14:30:12.502
62, -3610.14, -3411.60, -3640.77, -4039.84, 0.000, 0.000, 0.000, 14:30:12.502
63, -3619.75, -3416.05, -3645.71, -4046.31, 0.000, 0.000, 0.000, 14:30:12.506
64, -3620.93, -3416.74, -3643.73, -4042.05, 0.000, 0.000, 0.000, 14:30:12.506
67, -3616.47, -3424.67, -3640.93, -4039.06, 0.000, 0.000, 0.000, 14:30:12.507
68, -3621.54, -3428.67, -3649.10, -4041.88, 0.000, 0.000, 0.000, 14:30:12.507
69, -3617.78, -3429.55, -3656.45, -4046.01, 0.000, 0.000, 0.000, 14:30:12.507
70, -3613.90, -3416.85, -3645.70, -4029.85, 0.000, 0.000, 0.000, 14:30:12.508
71, -3620.64, -3422.42, -3646.36, -4039.54, 0.000, 0.000, 0.000, 14:30:12.510
72, -3617.91, -3423.20, -3654.85, -4041.12, 0.000, 0.000, 0.000, 14:30:12.510
73, -3612.65, -3427.38, -3651.30, -4047.55, 0.000, 0.000, 0.000, 14:30:12.524
74, -3621.61, -3426.91, -3652.76, -4048.34, 0.000, 0.000, 0.000, 14:30:12.524
75, -3621.17, -3424.57, -3646.55, -4043.62, 0.000, 0.000, 0.000, 14:30:12.525
76, -3617.42, -3426.09, -3649.13, -4040.78, 0.000, 0.000, 0.000, 14:30:12.525
77, -3613.97, -3427.40, -3645.70, -4036.67, 0.000, 0.000, 0.000, 14:30:12.525
78, -3612.38, -3421.56, -3643.21, -4044.27, 0.000, 0.000, 0.000, 14:30:12.525
79, -3615.79, -3415.53, -3645.54, -4033.41, 0.000, 0.000, 0.000, 14:30:12.528
80, -3616.63, -3417.16, -3641.56, -4034.31, 0.000, 0.000, 0.000, 14:30:12.528
81, -3613.68, -3422.34, -3638.98, -4027.17, 0.000, 0.000, 0.000, 14:30:12.530
82, -3616.52, -3417.51, -3639.51, -4027.13, 0.000, 0.000, 0.000, 14:30:12.530
83, -3611.89, -3411.04, -3629.32, -4020.59, 0.000, 0.000, 0.000, 14:30:12.531
84, -3609.01, -3410.62, -3637.91, -4024.52, 0.000, 0.000, 0.000, 14:30:12.531
85, -3612.94, -3412.00, -3639.92, -4028.92, 0.000, 0.000, 0.000, 14:30:12.531
86, -3617.86, -3412.78, -3642.88, -4028.75, 0.000, 0.000, 0.000, 14:30:12.532
87, -3609.24, -3406.02, -3639.65, -4021.69, 0.000, 0.000, 0.000, 14:30:12.532
88, -3609.44, -3407.96, -3632.79, -4019.94, 0.000, 0.000, 0.000, 14:30:12.532
89, -3618.31, -3418.30, -3640.40, -4024.41, 0.000, 0.000, 0.000, 14:30:12.533
90, -3618.71, -3413.23, -3642.24, -4034.60, 0.000, 0.000, 0.000, 14:30:12.533
161, -3631.06, -3420.12, -3644.32, -4031.53, 0.000, 0.000, 0.000, 14:30:12.534
162, -3633.15, -3425.06, -3653.09, -4034.30, 0.000, 0.000, 0.000, 14:30:12.534
163, -3627.62, -3423.16, -3656.02, -4031.25, 0.000, 0.000, 0.000, 14:30:12.536
164, -3629.15, -3408.66, -3647.25, -4023.76, 0.000, 0.000, 0.000, 14:30:12.536
165, -3633.90, -3417.99, -3656.01, -4036.58, 0.000, 0.000, 0.000, 14:30:12.537
166, -3626.09, -3412.59, -3651.76, -4028.81, 0.000, 0.000, 0.000, 14:30:12.538
187, -3622.70, -3414.52, -3645.41, -4028.80, 0.000, 0.000, 0.000, 14:30:12.539
188, -3631.49, -3416.79, -3658.41, -4037.35, 0.000, 0.000, 0.000, 14:30:12.540
189, -3627.35, -3417.52, -3662.73, -4040.69, 0.000, 0.000, 0.000, 14:30:12.560
190, -3618.98, -3412.82, -3652.68, -4036.39, 0.000, 0.000, 0.000, 14:30:12.560
191, -3622.13, -3415.82, -3656.17, -4038.27, 0.000, 0.000, 0.000, 14:30:12.561
192, -3618.42, -3413.87, -3654.10, -4041.39, 0.000, 0.000, 0.000, 14:30:12.561
1, -3608.48, -3401.75, -3656.21, -4028.55, 0.000, 0.000, 0.000, 14:30:12.562
2, -3609.42, -3387.18, -3649.37, -4020.67, 0.000, 0.000, 0.000, 14:30:12.563
3, -3609.96, -3398.99, -3654.02, -4026.38, 0.000, 0.000, 0.000, 14:30:12.565
4, -3611.50, -3401.11, -3647.54, -4027.83, 0.000, 0.000, 0.000, 14:30:12.565
5, -3610.36, -3398.38, -3646.43, -4033.28, 0.000, 0.000, 0.000, 14:30:12.566
6, -3597.22, -3389.03, -3636.27, -4023.61, 0.000, 0.000, 0.000, 14:30:12.566
7, -3606.27, -3403.47, -3651.51, -4039.59, 0.000, 0.000, 0.000, 14:30:12.567
8, -3614.73, -3410.24, -3660.76, -4040.42, 0.000, 0.000, 0.000, 14:30:12.567
9, -3615.05, -3403.69, -3657.76, -4040.95, 0.000, 0.000, 0.000, 14:30:12.567
10, -3602.53, -3399.31, -3640.57, -4027.40, 0.000, 0.000, 0.000, 14:30:12.567
11, -3625.19, -3411.28, -3657.08, -4037.40, 0.000, 0.000, 0.000, 14:30:12.568
12, -3624.68, -3413.58, -3658.54, -4038.19, 0.000, 0.000, 0.000, 14:30:12.568
13, -3615.26, -3397.65, -3654.87, -4036.01, 0.000, 0.000, 0.000, 14:30:12.568
14, -3603.07, -3396.55, -3650.21, -4022.81, 0.000, 0.000, 0.000, 14:30:12.569
15, -3610.05, -3410.41, -3659.79, -4034.75, 0.000, 0.000, 0.000, 14:30:12.569
16, -3618.13, -3414.08, -3664.46, -4043.60, 0.000, 0.000, 0.000, 14:30:12.569
17, -3619.83, -3409.53, -3658.61, -4036.06, 0.000, 0.000, 0.000, 14:30:12.570
18, -3613.90, -3395.47, -3649.40, -4036.48, 0.000, 0.000, 0.000, 14:30:12.571
19, -3615.44, -3397.24, -3658.90, -4042.85, 0.000, 0.000, 0.000, 14:30:12.572
20, -3614.54, -3403.02, -3660.21, -4040.53, 0.000, 0.000, 0.000, 14:30:12.573
21, -3610.97, -3399.03, -3653.21, -4036.97, 0.000, 0.000, 0.000, 14:30:12.601
22, -3607.54, -3400.74, -3647.15, -4037.47, 0.000, 0.000, 0.000, 14:30:12.601
23, -3620.63, -3407.77, -3658.39, -4042.90, 0.000, 0.000, 0.000, 14:30:12.602
24, -3620.47, -3407.70, -3658.19, -4046.29, 0.000, 0.000, 0.000, 14:30:12.602
25, -3611.04, -3399.17, -3653.92, -4036.37, 0.000, 0.000, 0.000, 14:30:12.603
26, -3605.85, -3388.51, -3649.36, -4023.25, 0.000, 0.000, 0.000, 14:30:12.603
27, -3612.21, -3395.24, -3648.00, -4023.93, 0.000, 0.000, 0.000, 14:30:12.604
28, -3626.14, -3402.47, -3661.24, -4032.75, 0.000, 0.000, 0.000, 14:30:12.604
29, -3613.41, -3399.32, -3652.97, -4029.68, 0.000, 0.000, 0.000, 14:30:12.604
30, -3616.44, -3405.87, -3655.37, -4036.13, 0.000, 0.000, 0.000, 14:30:12.604
31, -3624.78, -3409.79, -3659.28, -4035.23, 0.000, 0.000, 0.000, 14:30:12.605
32, -3622.62, -3403.96, -3659.40, -4036.81, 0.000, 0.000, 0.000, 14:30:12.605
33, -3618.77, -3396.46, -3649.82, -4021.09, 0.000, 0.000, 0.000, 14:30:12.606
34, -3612.05, -3392.43, -3642.81, -4032.40, 0.000, 0.000, 0.000, 14:30:12.606
35, -3627.74, -3400.61, -3651.84, -4043.45, 0.000, 0.000, 0.000, 14:30:12.606
36, -3622.26, -3409.29, -3658.69, -4047.76, 0.000, 0.000, 0.000, 14:30:12.606
37, -3621.18, -3417.62, -3657.67, -4049.58, 0.000, 0.000, 0.000, 14:30:12.607
38, -3608.94, -3407.27, -3651.16, -4039.62, 0.000, 0.000, 0.000, 14:30:12.607
39, -3613.92, -3408.18, -3648.87, -4044.42, 0.000, 0.000, 0.000, 14:30:12.608
40, -3611.03, -3400.12, -3651.01, -4037.47, 0.000, 0.000, 0.000, 14:30:12.609
41, -3617.43, -3400.59, -3649.65, -4037.93, 0.000, 0.000, 0.000, 14:30:12.610
42, -3614.63, -3399.01, -3649.95, -4032.18, 0.000, 0.000, 0.000, 14:30:12.610
43, -3624.20, -3401.30, -3652.88, -4034.31, 0.000, 0.000, 0.000, 14:30:12.618
44, -3623.81, -3410.45, -3660.43, -4033.97, 0.000, 0.000, 0.000, 14:30:12.618
45, -3611.13, -3398.68, -3644.74, -4024.29, 0.000, 0.000, 0.000, 14:30:12.619
46, -3604.57, -3394.13, -3642.60, -4021.73, 0.000, 0.000, 0.000, 14:30:12.619
47, -3615.33, -3399.66, -3643.16, -4027.77, 0.000, 0.000, 0.000, 14:30:12.619
48, -3611.93, -3396.82, -3642.44, -4024.86, 0.000, 0.000, 0.000, 14:30:12.620
49, -3615.20, -3391.70, -3640.07, -4029.01, 0.000, 0.000, 0.000, 14:30:12.620
50, -3619.72, -3391.81, -3645.80, -4033.06, 0.000, 0.000, 0.000, 14:30:12.621
51, -3608.71, -3390.95, -3644.55, -4020.95, 0.000, 0.000, 0.000, 14:30:12.621
52, -3615.09, -3403.71, -3649.28, -4037.34, 0.000, 0.000, 0.000, 14:30:12.622
53, -3619.15, -3410.26, -3659.44, -4040.67, 0.000, 0.000, 0.000, 14:30:12.622
54, -3613.62, -3409.46, -3654.59, -4044.36, 0.000, 0.000, 0.000, 14:30:12.622
55, -3617.74, -3407.88, -3660.64, -4042.45, 0.000, 0.000, 0.000, 14:30:12.623
56, -3612.89, -3402.26, -3657.29, -4043.37, 0.000, 0.000, 0.000, 14:30:12.623
57, -3614.87, -3397.86, -3645.31, -4037.06, 0.000, 0.000, 0.000, 14:30:12.624
58, -3620.91, -3405.75, -3657.23, -4039.49, 0.000, 0.000, 0.000, 14:30:12.624
59, -3618.63, -3406.49, -3654.94, -4033.21, 0.000, 0.000, 0.000, 14:30:12.632
60, -3626.32, -3406.74, -3656.67, -4032.95, 0.000, 0.000, 0.000, 14:30:12.632
61, -3609.40, -3400.62, -3652.44, -4026.61, 0.000, 0.000, 0.000, 14:30:12.632
62, -3618.19, -3395.68, -3656.89, -4041.37, 0.000, 0.000, 0.000, 14:30:12.633
63, -3620.42, -3401.46, -3656.67, -4029.83, 0.000, 0.000, 0.000, 14:30:12.633
64, -3618.57, -3399.24, -3649.86, -4024.67, 0.000, 0.000, 0.000, 14:30:12.634
65, -3613.93, -3396.35, -3652.43, -4031.85, 0.000, 0.000, 0.000, 14:30:12.634
66, -3612.02, -3391.60, -3648.49, -4031.80, 0.000, 0.000, 0.000, 14:30:12.634
67, -3617.02, -3398.09, -3652.92, -4039.55, 0.000, 0.000, 0.000, 14:30:12.638
68, -3610.31, -3401.17, -3647.26, -4035.12, 0.000, 0.000, 0.000, 14:30:12.638
69, -3592.84, -3393.49, -3638.97, -4032.05, 0.000, 0.000, 0.000, 14:30:12.639
70, -3581.63, -3386.42, -3620.29, -4015.82, 0.000, 0.000, 0.000, 14:30:12.639
71, -3588.90, -3385.19, -3631.36, -4018.20, 0.000, 0.000, 0.000, 14:30:12.640
72, -3593.33, -3387.08, -3635.39, -4012.44, 0.000, 0.000, 0.000, 14:30:12.640
83, -3587.45, -3382.67, -3638.43, -4002.24, 0.000, 0.000, 0.000, 14:30:12.641
84, -3585.55, -3381.63, -3633.29, -4001.39, 0.000, 0.000, 0.000, 14:30:12.641
85, -3591.42, -3392.53, -3637.73, -4005.23, 0.000, 0.000, 0.000, 14:30:12.642
86, -3606.71, -3397.98, -3653.64, -4018.14, 0.000, 0.000, 0.000, 14:30:12.642
87, -3626.37, -3412.78, -3668.02, -4038.13, 0.000, 0.000, 0.000, 14:30:12.652
88, -3621.95, -3413.12, -3668.25, -4036.84, 0.000, 0.000, 0.000, 14:30:12.652
113, -3611.56, -3404.04, -3667.00, -4022.39, 0.000, 0.000, 0.000, 14:30:12.653
114, -3599.24, -3400.24, -3655.65, -4010.46, 0.000, 0.000, 0.000, 14:30:12.654
115, -3612.98, -3401.88, -3667.67, -4017.48, 0.000, 0.000, 0.000, 14:30:12.655
116, -3623.60, -3402.07, -3675.44, -4020.82, 0.000, 0.000, 0.000, 14:30:12.655
117, -3605.93, -3394.97, -3654.95, -4004.24, 0.000, 0.000, 0.000, 14:30:12.655
118, -3598.48, -3389.77, -3648.10, -4000.86, 0.000, 0.000, 0.000, 14:30:12.656
155, -3591.55, -3390.22, -3637.12, -3998.22, 0.000, 0.000, 0.000, 14:30:12.656
156, -3595.49, -3384.15, -3639.33, -4005.29, 0.000, 0.000, 0.000, 14:30:12.657
163, -3592.88, -3382.32, -3637.72, -4008.24, 0.000, 0.000, 0.000, 14:30:12.667
164, -3584.29, -3373.93, -3639.97, -3996.70, 0.000, 0.000, 0.000, 14:30:12.667
165, -3585.57, -3369.59, -3635.12, -3994.69, 0.000, 0.000, 0.000, 14:30:12.668
166, -3586.00, -3377.68, -3635.30, -3998.09, 0.000, 0.000, 0.000, 14:30:12.669
173, -3583.36, -3382.58, -3634.46, -4001.22, 0.000, 0.000, 0.000, 14:30:12.669
174, -3585.78, -3385.19, -3635.43, -4005.59, 0.000, 0.000, 0.000, 14:30:12.669
175, -3585.69, -3391.43, -3642.20, -4006.49, 0.000, 0.000, 0.000, 14:30:12.671
176, -3585.42, -3388.27, -3642.65, -4006.58, 0.000, 0.000, 0.000, 14:30:12.671
177, -3581.90, -3381.82, -3632.01, -4003.65, 0.000, 0.000, 0.000, 14:30:12.672
178, -3586.36, -3385.77, -3633.25, -4011.24, 0.000, 0.000, 0.000, 14:30:12.672
179, -3581.41, -3384.83, -3637.99, -4005.24, 0.000, 0.000, 0.000, 14:30:12.672
180, -3578.64, -3373.47, -3627.20, -3992.10, 0.000, 0.000, 0.000, 14:30:12.672
181, -3568.40, -3367.91, -3616.31, -3992.51, 0.000, 0.000, 0.000, 14:30:12.673
182, -3569.30, -3371.55, -3620.58, -4001.93, 0.000, 0.000, 0.000, 14:30:12.674
183, -3582.91, -3390.92, -3630.11, -4008.77, 0.000, 0.000, 0.000, 14:30:12.686
184, -3580.83, -3387.75, -3635.47, -4005.77, 0.000, 0.000, 0.000, 14:30:12.686
185, -3581.63, -3386.71, -3632.20, -4012.01, 0.000, 0.000, 0.000, 14:30:12.686
186, -3579.04, -3381.78, -3637.18, -4009.47, 0.000, 0.000, 0.000, 14:30:12.686
187, -3582.38, -3386.40, -3636.48, -4009.00, 0.000, 0.000, 0.000, 14:30:12.689
188, -3575.89, -3385.56, -3627.75, -4007.86, 0.000, 0.000, 0.000, 14:30:12.690
189, -3580.45, -3384.42, -3631.66, -3997.98, 0.000, 0.000, 0.000, 14:30:12.691
190, -3581.18, -3375.43, -3632.10, -4001.15, 0.000, 0.000, 0.000, 14:30:12.691
191, -3583.41, -3387.51, -3632.48, -4014.09, 0.000, 0.000, 0.000, 14:30:12.691
192, -3590.13, -3395.62, -3638.53, -4019.09, 0.000, 0.000, 0.000, 14:30:12.691
193, -3589.02, -3388.18, -3642.93, -4012.37, 0.000, 0.000, 0.000, 14:30:12.700
194, -3581.42, -3381.27, -3638.51, -4005.36, 0.000, 0.000, 0.000, 14:30:12.700
195, -3593.56, -3388.34, -3642.01, -4012.42, 0.000, 0.000, 0.000, 14:30:12.701
196, -3579.10, -3397.19, -3633.77, -4002.17, 0.000, 0.000, 0.000, 14:30:12.701
197, -3571.33, -3383.96, -3623.95, -4002.70, 0.000, 0.000, 0.000, 14:30:12.702
198, -3585.30, -3392.97, -3638.41, -4016.67, 0.000, 0.000, 0.000, 14:30:12.702
199, -3579.66, -3385.05, -3635.32, -4005.78, 0.000, 0.000, 0.000, 14:30:12.702
200, -3570.39, -3371.81, -3621.79, -3989.92, 0.000, 0.000, 0.000, 14:30:12.702
0, -3586.16, -3391.63, -3628.96, -4039.91, 0.000, 0.000, 0.000, 14:30:12.703
1, -3575.70, -3390.61, -3628.35, -4037.86, 0.000, 0.000, 0.000, 14:30:12.704
2, -3570.44, -3385.54, -3625.53, -4036.10, 0.000, 0.000, 0.000, 14:30:12.704
3, -3570.00, -3379.76, -3623.62, -4036.69, 0.000, 0.000, 0.000, 14:30:12.704
4, -3577.20, -3382.08, -3630.67, -4039.11, 0.000, 0.000, 0.000, 14:30:12.705
5, -3566.81, -3386.88, -3622.61, -4033.54, 0.000, 0.000, 0.000, 14:30:12.706
6, -3583.91, -3393.70, -3632.28, -4040.43, 0.000, 0.000, 0.000, 14:30:12.706
7, -3595.38, -3405.50, -3635.88, -4055.49, 0.000, 0.000, 0.000, 14:30:12.714
8, -3579.51, -3401.67, -3633.30, -4042.68, 0.000, 0.000, 0.000, 14:30:12.715
9, -3574.84, -3399.38, -3623.88, -4046.01, 0.000, 0.000, 0.000, 14:30:12.715
10, -3589.75, -3419.54, -3628.65, -4054.12, 0.000, 0.000, 0.000, 14:30:12.715
11, -3593.45, -3406.77, -3630.22, -4048.14, 0.000, 0.000, 0.000, 14:30:12.716
12, -3585.34, -3398.37, -3625.61, -4039.54, 0.000, 0.000, 0.000, 14:30:12.716
13, -3595.43, -3406.34, -3635.98, -4046.88, 0.000, 0.000, 0.000, 14:30:12.721
14, -3593.59, -3414.41, -3637.33, -4048.68, 0.000, 0.000, 0.000, 14:30:12.721
15, -3606.20, -3424.13, -3650.02, -4059.87, 0.000, 0.000, 0.000, 14:30:12.733
16, -3607.92, -3421.18, -3653.24, -4056.83, 0.000, 0.000, 0.000, 14:30:12.733
17, -3598.94, -3407.52, -3636.05, -4053.29, 0.000, 0.000, 0.000, 14:30:12.734
18, -3598.50, -3410.24, -3645.28, -4060.10, 0.000, 0.000, 0.000, 14:30:12.734
19, -3603.30, -3412.17, -3648.95, -4052.20, 0.000, 0.000, 0.000, 14:30:12.735
20, -3597.41, -3408.35, -3638.97, -4050.41, 0.000, 0.000, 0.000, 14:30:12.735
21, -3593.70, -3410.87, -3637.92, -4045.75, 0.000, 0.000, 0.000, 14:30:12.736
22, -3605.69, -3415.55, -3646.25, -4053.97, 0.000, 0.000, 0.000, 14:30:12.736
23, -3610.40, -3422.18, -3646.57, -4061.27, 0.000, 0.000, 0.000, 14:30:12.736
24, -3614.18, -3418.55, -3649.88, -4047.33, 0.000, 0.000, 0.000, 14:30:12.736
25, -3600.24, -3412.00, -3643.29, -4042.78, 0.000, 0.000, 0.000, 14:30:12.737
26, -3610.70, -3419.04, -3651.64, -4054.73, 0.000, 0.000, 0.000, 14:30:12.737
27, -3593.92, -3407.71, -3626.78, -4044.44, 0.000, 0.000, 0.000, 14:30:12.738
28, -3594.39, -3407.78, -3633.73, -4043.94, 0.000, 0.000, 0.000, 14:30:12.738
29, -3595.03, -3405.65, -3636.40, -4034.37, 0.000, 0.000, 0.000, 14:30:12.738
30, -3598.14, -3412.18, -3635.79, -4035.99, 0.000, 0.000, 0.000, 14:30:12.738
31, -3604.28, -3412.29, -3641.86, -4049.88, 0.000, 0.000, 0.000, 14:30:12.739
32, -3599.92, -3418.52, -3639.52, -4050.00, 0.000, 0.000, 0.000, 14:30:12.739
33, -3590.49, -3399.85, -3630.51, -4040.68, 0.000, 0.000, 0.000, 14:30:12.740
34, -3590.50, -3401.64, -3627.48, -4036.31, 0.000, 0.000, 0.000, 14:30:12.741
35, -3592.25, -3401.03, -3629.72, -4035.14, 0.000, 0.000, 0.000, 14:30:12.741
36, -3584.58, -3388.67, -3618.24, -4033.74, 0.000, 0.000, 0.000, 14:30:12.741
37, -3579.71, -3387.00, -3617.98, -4026.85, 0.000, 0.000, 0.000, 14:30:12.750
38, -3591.55, -3398.13, -3624.41, -4039.80, 0.000, 0.000, 0.000, 14:30:12.750
39, -3592.53, -3401.96, -3628.11, -4042.83, 0.000, 0.000, 0.000, 14:30:12.752
40, -3584.45, -3397.48, -3625.33, -4035.01, 0.000, 0.000, 0.000, 14:30:12.753
41, -3582.08, -3403.39, -3621.97, -4032.32, 0.000, 0.000, 0.000, 14:30:12.753
42, -3573.28, -3392.14, -3620.31, -4022.63, 0.000, 0.000, 0.000, 14:30:12.753
43, -3575.70, -3388.88, -3617.16, -4028.21, 0.000, 0.000, 0.000, 14:30:12.755
44, -3558.57, -3367.87, -3596.16, -4013.88, 0.000, 0.000, 0.000, 14:30:12.755
45, -3549.81, -3359.18, -3592.99, -3998.71, 0.000, 0.000, 0.000, 14:30:12.755
46, -3552.33, -3354.40, -3593.51, -4006.67, 0.000, 0.000, 0.000, 14:30:12.756
47, -3555.82, -3364.32, -3599.48, -3999.94, 0.000, 0.000, 0.000, 14:30:12.756
48, -3561.55, -3370.58, -3608.78, -4002.07, 0.000, 0.000, 0.000, 14:30:12.756
49, -3553.15, -3366.73, -3599.84, -4008.53, 0.000, 0.000, 0.000, 14:30:12.757
50, -3561.71, -3364.74, -3599.22, -4013.65, 0.000, 0.000, 0.000, 14:30:12.757
51, -3563.61, -3379.85, -3605.20, -4019.91, 0.000, 0.000, 0.000, 14:30:12.768
52, -3568.75, -3376.69, -3607.77, -4018.39, 0.000, 0.000, 0.000, 14:30:12.769
53, -3577.48, -3385.57, -3613.79, -4020.83, 0.000, 0.000, 0.000, 14:30:12.769
54, -3578.97, -3390.12, -3619.99, -4026.06, 0.000, 0.000, 0.000, 14:30:12.769
55, -3572.55, -3383.58, -3616.05, -4013.12, 0.000, 0.000, 0.000, 14:30:12.769
56, -3561.86, -3377.03, -3601.78, -4012.25, 0.000, 0.000, 0.000, 14:30:12.770
57, -3562.80, -3374.40, -3609.70, -4004.06, 0.000, 0.000, 0.000, 14:30:12.771
58, -3564.06, -3371.47, -3613.84, -4011.14, 0.000, 0.000, 0.000, 14:30:12.771
59, -3555.16, -3366.03, -3608.57, -4007.37, 0.000, 0.000, 0.000, 14:30:12.771
60, -3556.24, -3369.05, -3601.52, -4003.61, 0.000, 0.000, 0.000, 14:30:12.771
61, -3559.49, -3371.13, -3606.89, -4015.23, 0.000, 0.000, 0.000, 14:30:12.772
62, -3565.25, -3377.29, -3607.39, -4013.51, 0.000, 0.000, 0.000, 14:30:12.772
63, -3562.72, -3372.92, -3607.66, -4012.29, 0.000, 0.000, 0.000, 14:30:12.773
64, -3559.32, -3373.96, -3598.40, -4011.76, 0.000, 0.000, 0.000, 14:30:12.773
65, -3560.30, -3369.43, -3590.80, -4005.88, 0.000, 0.000, 0.000, 14:30:12.773
66, -3567.16, -3379.12, -3602.78, -4018.34, 0.000, 0.000, 0.000, 14:30:12.774
67, -3580.45, -3392.55, -3614.47, -4027.22, 0.000, 0.000, 0.000, 14:30:12.783
68, -3570.78, -3385.02, -3614.20, -4012.82, 0.000, 0.000, 0.000, 14:30:12.783
69, -3569.00, -3376.91, -3606.68, -4009.78, 0.000, 0.000, 0.000, 14:30:12.784
70, -3568.96, -3380.60, -3613.64, -4019.65, 0.000, 0.000, 0.000, 14:30:12.785
71, -3572.04, -3387.40, -3615.23, -4024.72, 0.000, 0.000, 0.000, 14:30:12.785
72, -3564.14, -3381.46, -3607.34, -4011.69, 0.000, 0.000, 0.000, 14:30:12.785
73, -3565.96, -3375.23, -3601.81, -4000.10, 0.000, 0.000, 0.000, 14:30:12.786
74, -3573.74, -3389.02, -3603.68, -4011.81, 0.000, 0.000, 0.000, 14:30:12.786
75, -3574.99, -3384.39, -3611.91, -4015.14, 0.000, 0.000, 0.000, 14:30:12.787
76, -3571.11, -3375.63, -3608.57, -4010.72, 0.000, 0.000, 0.000, 14:30:12.787
77, -3560.52, -3373.06, -3603.37, -4008.19, 0.000, 0.000, 0.000, 14:30:12.787
78, -3558.46, -3369.77, -3598.69, -4010.79, 0.000, 0.000, 0.000, 14:30:12.787
79, -3548.31, -3367.80, -3591.18, -4006.60, 0.000, 0.000, 0.000, 14:30:12.788
80, -3550.85, -3373.44, -3588.49, -4009.92, 0.000, 0.000, 0.000, 14:30:12.788
81, -3566.68, -3372.26, -3602.46, -4017.65, 0.000, 0.000, 0.000, 14:30:12.802
82, -3571.91, -3376.97, -3613.65, -4023.03, 0.000, 0.000, 0.000, 14:30:12.802
83, -3575.77, -3380.62, -3612.25, -4019.18, 0.000, 0.000, 0.000, 14:30:12.812
84, -3564.74, -3370.69, -3601.92, -4007.33, 0.000, 0.000, 0.000, 14:30:12.812
85, -3564.00, -3380.79, -3603.42, -4011.07, 0.000, 0.000, 0.000, 14:30:12.897
86, -3575.71, -3376.49, -3619.90, -4021.48, 0.000, 0.000, 0.000, 14:30:12.897
87, -3569.18, -3378.72, -3615.96, -4019.19, 0.000, 0.000, 0.000, 14:30:12.898
88, -3559.19, -3376.87, -3596.76, -4011.09, 0.000, 0.000, 0.000, 14:30:12.898
89, -3561.75, -3383.12, -3599.40, -4018.24, 0.000, 0.000, 0.000, 14:30:12.898
90, -3567.47, -3386.77, -3601.65, -4015.97, 0.000, 0.000, 0.000, 14:30:12.898
91, -3571.56, -3386.87, -3607.34, -4016.24, 0.000, 0.000, 0.000, 14:30:12.899
92, -3572.57, -3387.67, -3613.92, -4030.35, 0.000, 0.000, 0.000, 14:30:12.899
93, -3570.31, -3381.58, -3606.69, -4014.99, 0.000, 0.000, 0.000, 14:30:12.900
94, -3578.66, -3380.70, -3622.48, -4033.81, 0.000, 0.000, 0.000, 14:30:12.900
95, -3585.98, -3385.24, -3628.85, -4027.50, 0.000, 0.000, 0.000, 14:30:12.900
96, -3580.05, -3379.46, -3629.87, -4027.49, 0.000, 0.000, 0.000, 14:30:12.900
97, -3581.14, -3384.07, -3631.78, -4025.76, 0.000, 0.000, 0.000, 14:30:12.901
98, -3580.01, -3388.47, -3632.69, -4032.03, 0.000, 0.000, 0.000, 14:30:12.901
99, -3574.86, -3388.61, -3619.88, -4030.54, 0.000, 0.000, 0.000, 14:30:12.902
100, -3580.79, -3390.07, -3620.86, -4031.14, 0.000, 0.000, 0.000, 14:30:12.902
101, -3590.29, -3396.78, -3630.03, -4027.88, 0.000, 0.000, 0.000, 14:30:12.902
102, -3589.68, -3396.20, -3629.29, -4026.64, 0.000, 0.000, 0.000, 14:30:12.902
103, -3585.82, -3393.90, -3623.91, -4027.86, 0.000, 0.000, 0.000, 14:30:12.903
104, -3576.80, -3386.08, -3624.70, -4019.26, 0.000, 0.000, 0.000, 14:30:12.903
105, -3573.15, -3383.27, -3605.41, -4012.84, 0.000, 0.000, 0.000, 14:30:12.909
106, -3581.39, -3390.00, -3609.75, -4025.36, 0.000, 0.000, 0.000, 14:30:12.909
107, -3581.20, -3396.65, -3620.16, -4033.75, 0.000, 0.000, 0.000, 14:30:12.910
108, -3573.80, -3388.30, -3621.81, -4023.96, 0.000, 0.000, 0.000, 14:30:12.910
109, -3575.66, -3386.08, -3617.98, -4029.20, 0.000, 0.000, 0.000, 14:30:12.942
110, -3567.89, -3380.57, -3615.08, -4031.44, 0.000, 0.000, 0.000, 14:30:12.943
111, -3576.16, -3378.05, -3616.99, -4027.11, 0.000, 0.000, 0.000, 14:30:12.944
112, -3579.56, -3384.53, -3622.10, -4031.47, 0.000, 0.000, 0.000, 14:30:12.944
113, -3570.58, -3386.02, -3618.11, -4022.01, 0.000, 0.000, 0.000, 14:30:12.944
114, -3583.89, -3383.83, -3628.33, -4036.06, 0.000, 0.000, 0.000, 14:30:12.944
115, -3589.16, -3400.63, -3630.71, -4036.43, 0.000, 0.000, 0.000, 14:30:12.953
116, -3583.71, -3390.16, -3622.95, -4029.55, 0.000, 0.000, 0.000, 14:30:12.954
117, -3573.55, -3388.00, -3614.54, -4025.22, 0.000, 0.000, 0.000, 14:30:12.977
118, -3575.32, -3383.22, -3621.41, -4025.00, 0.000, 0.000, 0.000, 14:30:12.977
119, -3589.11, -3396.61, -3632.43, -4044.56, 0.000, 0.000, 0.000, 14:30:12.979
120, -3582.36, -3393.65, -3628.38, -4028.63, 0.000, 0.000, 0.000, 14:30:12.979
121, -3579.50, -3391.70, -3628.75, -4034.28, 0.000, 0.000, 0.000, 14:30:12.983
122, -3584.14, -3398.45, -3626.28, -4045.37, 0.000, 0.000, 0.000, 14:30:12.983
123, -3583.59, -3387.01, -3627.84, -4033.05, 0.000, 0.000, 0.000, 14:30:13.052
124, -3579.57, -3385.40, -3624.08, -4026.18, 0.000, 0.000, 0.000, 14:30:13.053
125, -3586.80, -3387.68, -3627.14, -4029.27, 0.000, 0.000, 0.000, 14:30:13.124
126, -3581.73, -3388.40, -3623.50, -4017.79, 0.000, 0.000, 0.000, 14:30:13.125
127, -3596.65, -3412.38, -3634.59, -4048.84, 0.000, 0.000, 0.000, 14:30:13.125
128, -3590.15, -3396.80, -3629.98, -4042.79, 0.000, 0.000, 0.000, 14:30:13.125
129, -3588.76, -3399.87, -3629.68, -4037.67, 0.000, 0.000, 0.000, 14:30:13.144
130, -3577.60, -3388.11, -3616.76, -4028.04, 0.000, 0.000, 0.000, 14:30:13.145
131, -3599.00, -3397.95, -3630.10, -4030.24, 0.000, 0.000, 0.000, 14:30:13.146
132, -3586.57, -3395.53, -3623.93, -4041.05, 0.000, 0.000, 0.000, 14:30:13.146
133, -3572.56, -3379.44, -3605.99, -4020.61, 0.000, 0.000, 0.000, 14:30:13.146
134, -3575.98, -3387.83, -3619.70, -4018.43, 0.000, 0.000, 0.000, 14:30:13.147
135, -3580.26, -3387.97, -3621.41, -4028.91, 0.000, 0.000, 0.000, 14:30:13.316
136, -3570.61, -3384.77, -3607.32, -4019.48, 0.000, 0.000, 0.000, 14:30:13.317
137, -3581.77, -3385.02, -3619.79, -4030.05, 0.000, 0.000, 0.000, 14:30:13.320
138, -3582.33, -3392.94, -3618.54, -4018.65, 0.000, 0.000, 0.000, 14:30:13.320
139, -3583.76, -3398.48, -3628.07, -4034.45, 0.000, 0.000, 0.000, 14:30:13.321
140, -3575.58, -3382.76, -3616.74, -4035.83, 0.000, 0.000, 0.000, 14:30:13.321
141, -3574.33, -3387.92, -3614.09, -4031.66, 0.000, 0.000, 0.000, 14:30:13.484
142, -3582.13, -3396.77, -3623.82, -4028.09, 0.000, 0.000, 0.000, 14:30:13.484
143, -3590.19, -3399.36, -3628.84, -4036.61, 0.000, 0.000, 0.000, 14:30:13.497
144, -3591.97, -3397.80, -3632.66, -4030.34, 0.000, 0.000, 0.000, 14:30:13.498
145, -3582.74, -3390.22, -3628.09, -4031.74, 0.000, 0.000, 0.000, 14:30:13.514
146, -3589.00, -3398.20, -3633.03, -4044.59, 0.000, 0.000, 0.000, 14:30:13.514
147, -3578.53, -3394.13, -3621.14, -4035.32, 0.000, 0.000, 0.000, 14:30:13.515
148, -3572.86, -3388.81, -3612.82, -4030.11, 0.000, 0.000, 0.000, 14:30:13.515
149, -3574.11, -3380.22, -3610.84, -4013.97, 0.000, 0.000, 0.000, 14:30:13.515
150, -3583.10, -3396.25, -3625.19, -4034.83, 0.000, 0.000, 0.000, 14:30:13.515
151, -3575.87, -3392.02, -3618.83, -4039.27, 0.000, 0.000, 0.000, 14:30:13.516
152, -3582.26, -3394.30, -3622.58, -4033.93, 0.000, 0.000, 0.000, 14:30:13.516
153, -3587.70, -3409.80, -3627.56, -4046.80, 0.000, 0.000, 0.000, 14:30:13.516
154, -3588.11, -3414.75, -3632.25, -4043.64, 0.000, 0.000, 0.000, 14:30:13.516
155, -3581.88, -3407.90, -3625.08, -4042.70, 0.000, 0.000, 0.000, 14:30:13.518
156, -3580.64, -3395.38, -3614.16, -4036.34, 0.000, 0.000, 0.000, 14:30:13.518
157, -3576.07, -3398.51, -3617.06, -4028.39, 0.000, 0.000, 0.000, 14:30:13.519
158, -3590.75, -3399.43, -3628.87, -4042.21, 0.000, 0.000, 0.000, 14:30:13.519
159, -3591.54, -3399.10, -3626.44, -4037.58, 0.000, 0.000, 0.000, 14:30:13.531
160, -3591.67, -3414.01, -3626.81, -4039.16, 0.000, 0.000, 0.000, 14:30:13.531
161, -3589.39, -3405.98, -3623.18, -4035.88, 0.000, 0.000, 0.000, 14:30:13.533
162, -3589.31, -3404.78, -3626.95, -4033.29, 0.000, 0.000, 0.000, 14:30:13.533
163, -3571.28, -3381.35, -3612.41, -4020.73, 0.000, 0.000, 0.000, 14:30:13.533
164, -3555.96, -3364.25, -3598.63, -3999.29, 0.000, 0.000, 0.000, 14:30:13.534
165, -3582.93, -3384.44, -3610.92, -4018.34, 0.000, 0.000, 0.000, 14:30:13.555
166, -3578.74, -3381.20, -3615.12, -4022.22, 0.000, 0.000, 0.000, 14:30:13.555
167, -3575.91, -3395.03, -3624.66, -4034.91, 0.000, 0.000, 0.000, 14:30:13.560
168, -3576.97, -3387.02, -3616.64, -4022.36, 0.000, 0.000, 0.000, 14:30:13.561
169, -3575.71, -3384.39, -3617.99, -4021.10, 0.000, 0.000, 0.000, 14:30:13.563
170, -3579.07, -3379.59, -3617.66, -4020.22, 0.000, 0.000, 0.000, 14:30:13.563
171, -3580.40, -3383.47, -3629.78, -4027.38, 0.000, 0.000, 0.000, 14:30:13.564
172, -3575.22, -3378.84, -3622.86, -4021.60, 0.000, 0.000, 0.000, 14:30:13.564
173, -3580.57, -3390.52, -3632.44, -4040.88, 0.000, 0.000, 0.000, 14:30:13.566
174, -3574.40, -3377.16, -3626.40, -4030.14, 0.000, 0.000, 0.000, 14:30:13.566
175, -3594.70, -3401.22, -3637.94, -4040.31, 0.000, 0.000, 0.000, 14:30:13.567
176, -3587.82, -3390.67, -3635.67, -4038.61, 0.000, 0.000, 0.000, 14:30:13.567
177, -3584.51, -3398.79, -3629.47, -4030.05, 0.000, 0.000, 0.000, 14:30:13.569
178, -3582.54, -3396.41, -3630.01, -4031.07, 0.000, 0.000, 0.000, 14:30:13.569
179, -3590.04, -3404.01, -3635.06, -4038.78, 0.000, 0.000, 0.000, 14:30:13.569
180, -3581.05, -3395.01, -3636.18, -4034.61, 0.000, 0.000, 0.000, 14:30:13.569
181, -3578.90, -3387.35, -3627.98, -4039.04, 0.000, 0.000, 0.000, 14:30:13.570
182, -3569.61, -3379.35, -3615.62, -4023.39, 0.000, 0.000, 0.000, 14:30:13.570
183, -3575.53, -3394.27, -3622.36, -4031.66, 0.000, 0.000, 0.000, 14:30:13.571
184, -3589.88, -3395.74, -3622.90, -4036.10, 0.000, 0.000, 0.000, 14:30:13.571
185, -3585.49, -3397.00, -3622.51, -4040.17, 0.000, 0.000, 0.000, 14:30:13.573
186, -3580.50, -3397.85, -3628.48, -4040.51, 0.000, 0.000, 0.000, 14:30:13.573
187, -3589.73, -3401.20, -3634.89, -4041.50, 0.000, 0.000, 0.000, 14:30:13.576
188, -3585.20, -3397.89, -3631.44, -4029.94, 0.000, 0.000, 0.000, 14:30:13.576
189, -3581.58, -3382.65, -3623.78, -4022.40, 0.000, 0.000, 0.000, 14:30:13.576
190, -3591.15, -3388.16, -3633.74, -4030.88, 0.000, 0.000, 0.000, 14:30:13.577
191, -3597.94, -3399.55, -3631.33, -4034.58, 0.000, 0.000, 0.000, 14:30:13.605
192, -3591.67, -3391.10, -3632.19, -4033.62, 0.000, 0.000, 0.000, 14:30:13.606
193, -3585.76, -3396.21, -3623.75, -4024.57, 0.000, 0.000, 0.000, 14:30:13.608
194, -3586.96, -3399.82, -3631.15, -4040.95, 0.000, 0.000, 0.000, 14:30:13.608
195, -3587.62, -3400.51, -3636.53, -4040.48, 0.000, 0.000, 0.000, 14:30:13.608
196, -3582.90, -3383.94, -3626.47, -4035.78, 0.000, 0.000, 0.000, 14:30:13.608
197, -3573.61, -3385.10, -3618.47, -4024.61, 0.000, 0.000, 0.000, 14:30:13.655
198, -3571.69, -3382.75, -3617.66, -4019.25, 0.000, 0.000, 0.000, 14:30:13.655
199, -3588.92, -3395.95, -3626.68, -4031.47, 0.000, 0.000, 0.000, 14:30:13.656
200, -3582.33, -3400.27, -3625.54, -4032.89, 0.000, 0.000, 0.000, 14:30:13.656
0, -3600.16, -3408.69, -3634.54, -4041.19, 0.000, 0.000, 0.000, 14:30:13.656
1, -3585.72, -3406.11, -3622.87, -4034.35, 0.000, 0.000, 0.000, 14:30:13.657
2, -3589.07, -3391.55, -3626.62, -4035.91, 0.000, 0.000, 0.000, 14:30:13.657
3, -3590.76, -3402.51, -3627.24, -4036.23, 0.000, 0.000, 0.000, 14:30:13.657
4, -3580.54, -3398.52, -3622.14, -4039.82, 0.000, 0.000, 0.000, 14:30:13.657
5, -3577.27, -3395.87, -3618.80, -4036.45, 0.000, 0.000, 0.000, 14:30:13.658
6, -3584.98, -3396.75, -3618.43, -4036.95, 0.000, 0.000, 0.000, 14:30:13.658
7, -3573.50, -3399.01, -3615.97, -4035.14, 0.000, 0.000, 0.000, 14:30:13.659
8, -3578.15, -3401.60, -3624.20, -4031.12, 0.000, 0.000, 0.000, 14:30:13.659
9, -3583.52, -3397.33, -3629.71, -4028.24, 0.000, 0.000, 0.000, 14:30:13.660
10, -3599.18, -3411.81, -3638.64, -4045.44, 0.000, 0.000, 0.000, 14:30:13.660
11, -3587.88, -3400.40, -3625.60, -4036.11, 0.000, 0.000, 0.000, 14:30:13.661
12, -3574.80, -3382.20, -3615.74, -4027.58, 0.000, 0.000, 0.000, 14:30:13.661
13, -3582.70, -3397.22, -3621.81, -4034.41, 0.000, 0.000, 0.000, 14:30:13.663
14, -3599.71, -3412.65, -3635.60, -4045.80, 0.000, 0.000, 0.000, 14:30:13.664
15, -3585.62, -3399.07, -3626.73, -4034.90, 0.000, 0.000, 0.000, 14:30:13.668
16, -3582.28, -3393.52, -3629.29, -4029.39, 0.000, 0.000, 0.000, 14:30:13.669
17, -3578.98, -3382.97, -3626.80, -4027.63, 0.000, 0.000, 0.000, 14:30:13.670
18, -3568.29, -3388.83, -3611.62, -4014.51, 0.000, 0.000, 0.000, 14:30:13.670
19, -3580.05, -3394.76, -3619.58, -4033.79, 0.000, 0.000, 0.000, 14:30:13.674
20, -3591.20, -3399.05, -3627.16, -4028.60, 0.000, 0.000, 0.000, 14:30:13.674
21, -3597.01, -3403.11, -3626.38, -4029.80, 0.000, 0.000, 0.000, 14:30:13.676
22, -3584.57, -3394.55, -3621.46, -4028.88, 0.000, 0.000, 0.000, 14:30:13.676
23, -3572.90, -3382.99, -3610.93, -4017.64, 0.000, 0.000, 0.000, 14:30:13.677
24, -3572.39, -3386.96, -3612.43, -4021.50, 0.000, 0.000, 0.000, 14:30:13.683
25, -3576.57, -3394.87, -3614.53, -4028.86, 0.000, 0.000, 0.000, 14:30:13.711
26, -3595.20, -3414.92, -3633.60, -4033.73, 0.000, 0.000, 0.000, 14:30:13.711
27, -3601.43, -3402.65, -3628.02, -4032.92, 0.000, 0.000, 0.000, 14:30:13.713
28, -3592.17, -3403.81, -3626.98, -4038.44, 0.000, 0.000, 0.000, 14:30:13.713
29, -3586.60, -3403.64, -3627.47, -4039.77, 0.000, 0.000, 0.000, 14:30:13.713
30, -3583.25, -3403.17, -3623.05, -4039.04, 0.000, 0.000, 0.000, 14:30:13.713
31, -3593.29, -3415.18, -3635.28, -4044.77, 0.000, 0.000, 0.000, 14:30:13.713
32, -3587.28, -3412.15, -3633.18, -4040.61, 0.000, 0.000, 0.000, 14:30:13.713
33, -3603.65, -3411.07, -3641.24, -4048.04, 0.000, 0.000, 0.000, 14:30:13.715
34, -3604.97, -3413.66, -3641.15, -4042.96, 0.000, 0.000, 0.000, 14:30:13.715
35, -3601.94, -3418.20, -3639.90, -4047.22, 0.000, 0.000, 0.000, 14:30:13.715
36, -3596.98, -3418.44, -3628.69, -4041.96, 0.000, 0.000, 0.000, 14:30:13.715
37, -3595.52, -3414.50, -3633.33, -4037.71, 0.000, 0.000, 0.000, 14:30:13.716
38, -3593.03, -3411.96, -3633.47, -4042.00, 0.000, 0.000, 0.000, 14:30:13.716
39, -3582.69, -3399.46, -3628.40, -4036.16, 0.000, 0.000, 0.000, 14:30:13.720
40, -3588.33, -3408.43, -3630.30, -4037.27, 0.000, 0.000, 0.000, 14:30:13.720
41, -3589.90, -3398.66, -3629.10, -4033.18, 0.000, 0.000, 0.000, 14:30:13.720
42, -3595.49, -3407.97, -3633.83, -4037.38, 0.000, 0.000, 0.000, 14:30:13.720
43, -3588.78, -3405.71, -3636.21, -4036.52, 0.000, 0.000, 0.000, 14:30:13.726
44, -3588.95, -3386.94, -3627.68, -4036.71, 0.000, 0.000, 0.000, 14:30:13.726
45, -3598.68, -3397.93, -3629.74, -4046.65, 0.000, 0.000, 0.000, 14:30:13.727
46, -3591.36, -3399.27, -3626.69, -4038.41, 0.000, 0.000, 0.000, 14:30:13.727
47, -3593.60, -3406.21, -3634.18, -4044.13, 0.000, 0.000, 0.000, 14:30:13.728
48, -3592.47, -3402.93, -3635.35, -4042.66, 0.000, 0.000, 0.000, 14:30:13.728
49, -3597.27, -3398.66, -3637.92, -4039.62, 0.000, 0.000, 0.000, 14:30:13.739
50, -3601.09, -3393.98, -3636.39, -4040.22, 0.000, 0.000, 0.000, 14:30:13.740
51, -3611.95, -3407.18, -3643.54, -4041.08, 0.000, 0.000, 0.000, 14:30:13.741
52, -3599.84, -3408.86, -3642.64, -4041.66, 0.000, 0.000, 0.000, 14:30:13.741
53, -3596.74, -3402.37, -3634.27, -4034.23, 0.000, 0.000, 0.000, 14:30:13.741
54, -3588.36, -3400.93, -3627.04, -4038.09, 0.000, 0.000, 0.000, 14:30:13.742
55, -3594.40, -3395.74, -3628.49, -4033.09, 0.000, 0.000, 0.000, 14:30:13.755
56, -3587.48, -3400.20, -3626.28, -4032.78, 0.000, 0.000, 0.000, 14:30:13.755
57, -3600.25, -3397.48, -3630.82, -4041.56, 0.000, 0.000, 0.000, 14:30:13.756
58, -3590.38, -3400.03, -3629.46, -4037.83, 0.000, 0.000, 0.000, 14:30:13.756
59, -3587.19, -3404.24, -3626.66, -4027.75, 0.000, 0.000, 0.000, 14:30:13.757
60, -3591.64, -3396.73, -3628.95, -4029.99, 0.000, 0.000, 0.000, 14:30:13.757
61, -3597.08, -3403.66, -3640.07, -4040.53, 0.000, 0.000, 0.000, 14:30:13.775
62, -3592.30, -3400.70, -3629.69, -4047.84, 0.000, 0.000, 0.000, 14:30:13.776
63, -3583.62, -3394.39, -3627.57, -4038.66, 0.000, 0.000, 0.000, 14:30:13.777
64, -3587.60, -3398.70, -3632.41, -4033.34, 0.000, 0.000, 0.000, 14:30:13.778
65, -3585.37, -3403.23, -3627.62, -4040.62, 0.000, 0.000, 0.000, 14:30:13.778
66, -3588.81, -3399.84, -3625.91, -4027.20, 0.000, 0.000, 0.000, 14:30:13.778
67, -3595.83, -3408.36, -3637.41, -4038.32, 0.000, 0.000, 0.000, 14:30:13.789
68, -3590.07, -3404.90, -3632.49, -4037.54, 0.000, 0.000, 0.000, 14:30:13.790
69, -3583.76, -3391.85, -3625.54, -4038.32, 0.000, 0.000, 0.000, 14:30:13.791
70, -3587.93, -3399.29, -3627.44, -4042.60, 0.000, 0.000, 0.000, 14:30:13.791
71, -3585.23, -3404.84, -3632.12, -4046.60, 0.000, 0.000, 0.000, 14:30:13.791
72, -3583.57, -3402.26, -3631.51, -4042.23, 0.000, 0.000, 0.000, 14:30:13.791
73, -3592.18, -3400.48, -3631.99, -4045.78, 0.000, 0.000, 0.000, 14:30:13.805
74, -3595.00, -3400.60, -3636.79, -4041.09, 0.000, 0.000, 0.000, 14:30:13.805
75, -3583.99, -3399.63, -3629.17, -4023.39, 0.000, 0.000, 0.000, 14:30:13.806
76, -3583.34, -3398.52, -3622.22, -4033.97, 0.000, 0.000, 0.000, 14:30:13.806
77, -3582.43, -3398.24, -3632.27, -4038.73, 0.000, 0.000, 0.000, 14:30:13.806
78, -3589.32, -3398.85, -3629.51, -4042.55, 0.000, 0.000, 0.000, 14:30:13.806
79, -3587.69, -3396.21, -3630.32, -4034.60, 0.000, 0.000, 0.000, 14:30:13.827
80, -3593.50, -3406.41, -3633.31, -4040.06, 0.000, 0.000, 0.000, 14:30:13.827
81, -3602.69, -3413.00, -3638.73, -4041.92, 0.000, 0.000, 0.000, 14:30:13.827
82, -3595.01, -3405.61, -3629.23, -4038.91, 0.000, 0.000, 0.000, 14:30:13.827
83, -3590.63, -3397.05, -3624.61, -4039.75, 0.000, 0.000, 0.000, 14:30:13.828
84, -3578.04, -3401.45, -3625.49, -4027.12, 0.000, 0.000, 0.000, 14:30:13.828
85, -3587.30, -3400.58, -3625.39, -4037.61, 0.000, 0.000, 0.000, 14:30:13.828
86, -3597.18, -3410.81, -3641.53, -4051.24, 0.000, 0.000, 0.000, 14:30:13.828
87, -3582.09, -3396.98, -3625.01, -4035.60, 0.000, 0.000, 0.000, 14:30:13.829
88, -3567.73, -3383.11, -3616.99, -4016.56, 0.000, 0.000, 0.000, 14:30:13.829
89, -3581.94, -3391.65, -3626.94, -4041.55, 0.000, 0.000, 0.000, 14:30:13.829
90, -3587.26, -3397.15, -3631.99, -4034.62, 0.000, 0.000, 0.000, 14:30:13.829
91, -3590.93, -3401.72, -3637.51, -4034.95, 0.000, 0.000, 0.000, 14:30:13.848
92, -3589.62, -3396.08, -3630.68, -4032.17, 0.000, 0.000, 0.000, 14:30:13.848
93, -3600.01, -3407.71, -3640.48, -4039.82, 0.000, 0.000, 0.000, 14:30:13.887
94, -3599.88, -3411.02, -3644.12, -4034.74, 0.000, 0.000, 0.000, 14:30:13.888
95, -3580.48, -3393.65, -3638.51, -4032.09, 0.000, 0.000, 0.000, 14:30:13.891
96, -3582.64, -3399.42, -3630.10, -4028.40, 0.000, 0.000, 0.000, 14:30:13.891
97, -3585.57, -3406.82, -3635.26, -4038.53, 0.000, 0.000, 0.000, 14:30:13.891
98, -3589.94, -3406.92, -3647.44, -4047.04, 0.000, 0.000, 0.000, 14:30:13.892
99, -3586.45, -3401.97, -3637.09, -4042.96, 0.000, 0.000, 0.000, 14:30:13.922
100, -3584.26, -3404.34, -3638.49, -4042.58, 0.000, 0.000, 0.000, 14:30:13.922
101, -3595.60, -3404.06, -3644.94, -4047.97, 0.000, 0.000, 0.000, 14:30:13.923
102, -3603.80, -3407.59, -3640.68, -4038.69, 0.000, 0.000, 0.000, 14:30:13.923
103, -3594.03, -3409.17, -3635.25, -4040.22, 0.000, 0.000, 0.000, 14:30:13.923
104, -3591.31, -3402.27, -3628.48, -4045.51, 0.000, 0.000, 0.000, 14:30:13.923
105, -3592.06, -3401.81, -3627.92, -4036.10, 0.000, 0.000, 0.000, 14:30:13.934
106, -3593.52, -3394.02, -3635.21, -4038.21, 0.000, 0.000, 0.000, 14:30:13.935
107, -3584.89, -3395.39, -3632.92, -4037.18, 0.000, 0.000, 0.000, 14:30:13.935
108, -3589.06, -3399.91, -3632.06, -4034.16, 0.000, 0.000, 0.000, 14:30:13.936
109, -3587.04, -3392.70, -3623.56, -4033.20, 0.000, 0.000, 0.000, 14:30:13.938
110, -3586.83, -3397.41, -3618.87, -4030.98, 0.000, 0.000, 0.000, 14:30:13.939
111, -3577.54, -3379.86, -3607.48, -4020.02, 0.000, 0.000, 0.000, 14:30:13.939
112, -3577.80, -3392.34, -3613.69, -4035.89, 0.000, 0.000, 0.000, 14:30:13.940
113, -3579.23, -3383.30, -3619.58, -4020.04, 0.000, 0.000, 0.000, 14:30:13.943
114, -3579.19, -3388.33, -3622.20, -4018.72, 0.000, 0.000, 0.000, 14:30:13.944
115, -3582.36, -3383.74, -3616.72, -4029.63, 0.000, 0.000, 0.000, 14:30:14.066
116, -3584.03, -3387.65, -3619.42, -4031.88, 0.000, 0.000, 0.000, 14:30:14.066
117, -3591.02, -3404.02, -3627.63, -4042.91, 0.000, 0.000, 0.000, 14:30:14.068
118, -3589.07, -3399.71, -3622.32, -4042.79, 0.000, 0.000, 0.000, 14:30:14.069
119, -3579.54, -3392.95, -3621.13, -4037.88, 0.000, 0.000, 0.000, 14:30:14.069
120, -3568.89, -3387.15, -3617.51, -4022.88, 0.000, 0.000, 0.000, 14:30:14.069
121, -3571.68, -3390.53, -3623.63, -4035.23, 0.000, 0.000, 0.000, 14:30:14.073
122, -3581.49, -3388.02, -3628.84, -4032.82, 0.000, 0.000, 0.000, 14:30:14.073
123, -3581.51, -3395.18, -3628.23, -4035.18, 0.000, 0.000, 0.000, 14:30:14.074
124, -3586.03, -3398.27, -3634.16, -4041.60, 0.000, 0.000, 0.000, 14:30:14.074
125, -3584.80, -3400.40, -3635.97, -4054.05, 0.000, 0.000, 0.000, 14:30:14.074
126, -3587.43, -3399.77, -3640.61, -4039.63, 0.000, 0.000, 0.000, 14:30:14.075
127, -3593.94, -3396.10, -3637.03, -4040.61, 0.000, 0.000, 0.000, 14:30:14.164
128, -3590.23, -3398.98, -3629.65, -4043.10, 0.000, 0.000, 0.000, 14:30:14.164
129, -3580.71, -3389.49, -3625.60, -4029.23, 0.000, 0.000, 0.000, 14:30:14.171
130, -3576.37, -3388.87, -3627.92, -4032.54, 0.000, 0.000, 0.000, 14:30:14.171
131, -3579.22, -3387.32, -3628.16, -4036.93, 0.000, 0.000, 0.000, 14:30:14.171
132, -3573.02, -3387.41, -3623.84, -4040.75, 0.000, 0.000, 0.000, 14:30:14.171
133, -3587.61, -3388.41, -3630.57, -4031.77, 0.000, 0.000, 0.000, 14:30:14.172
134, -3574.70, -3382.07, -3628.51, -4033.72, 0.000, 0.000, 0.000, 14:30:14.172
135, -3577.26, -3378.73, -3629.96, -4044.15, 0.000, 0.000, 0.000, 14:30:14.173
136, -3574.82, -3377.42, -3629.53, -4034.77, 0.000, 0.000, 0.000, 14:30:14.173
137, -3573.83, -3376.61, -3618.08, -4029.53, 0.000, 0.000, 0.000, 14:30:14.175
138, -3579.55, -3387.13, -3626.44, -4026.12, 0.000, 0.000, 0.000, 14:30:14.176
139, -3574.77, -3392.81, -3625.27, -4029.51, 0.000, 0.000, 0.000, 14:30:14.187
140, -3571.21, -3390.94, -3614.28, -4028.35, 0.000, 0.000, 0.000, 14:30:14.187
141, -3579.47, -3389.86, -3624.98, -4025.18, 0.000, 0.000, 0.000, 14:30:14.244
142, -3578.38, -3386.52, -3627.83, -4025.74, 0.000, 0.000, 0.000, 14:30:14.254
143, -3576.27, -3387.22, -3629.52, -4020.59, 0.000, 0.000, 0.000, 14:30:14.254
144, -3576.08, -3379.33, -3623.25, -4023.76, 0.000, 0.000, 0.000, 14:30:14.255
145, -3586.88, -3394.61, -3631.60, -4024.29, 0.000, 0.000, 0.000, 14:30:14.437
146, -3587.08, -3404.25, -3627.50, -4036.65, 0.000, 0.000, 0.000, 14:30:14.437
147, -3576.51, -3395.81, -3617.73, -4021.07, 0.000, 0.000, 0.000, 14:30:14.439
148, -3568.86, -3384.13, -3618.93, -4018.81, 0.000, 0.000, 0.000, 14:30:14.439
149, -3586.45, -3404.58, -3630.16, -4034.52, 0.000, 0.000, 0.000, 14:30:14.439
150, -3589.28, -3406.30, -3635.98, -4037.61, 0.000, 0.000, 0.000, 14:30:14.440
151, -3593.19, -3394.81, -3628.70, -4040.12, 0.000, 0.000, 0.000, 14:30:14.644
152, -3595.25, -3400.78, -3630.30, -4046.64, 0.000, 0.000, 0.000, 14:30:14.644
153, -3593.20, -3404.36, -3633.57, -4047.00, 0.000, 0.000, 0.000, 14:30:14.888
154, -3597.39, -3399.47, -3631.78, -4036.35, 0.000, 0.000, 0.000, 14:30:14.888
155, -3593.60, -3404.94, -3626.28, -4034.44, 0.000, 0.000, 0.000, 14:30:14.889
156, -3595.30, -3405.44, -3623.06, -4029.16, 0.000, 0.000, 0.000, 14:30:14.889
157, -3607.45, -3416.47, -3634.59, -4037.69, 0.000, 0.000, 0.000, 14:30:15.002
158, -3610.18, -3420.31, -3642.43, -4053.98, 0.000, 0.000, 0.000, 14:30:15.002
159, -3608.86, -3415.68, -3638.60, -4045.94, 0.000, 0.000, 0.000, 14:30:15.014
160, -3606.85, -3415.09, -3636.30, -4039.59, 0.000, 0.000, 0.000, 14:30:15.015
161, -3611.65, -3412.98, -3648.38, -4045.01, 0.000, 0.000, 0.000, 14:30:15.015
162, -3603.18, -3407.00, -3637.17, -4039.53, 0.000, 0.000, 0.000, 14:30:15.015
163, -3595.77, -3401.38, -3629.28, -4035.74, 0.000, 0.000, 0.000, 14:30:15.069
164, -3603.86, -3423.96, -3642.08, -4046.44, 0.000, 0.000, 0.000, 14:30:15.069
165, -3598.44, -3420.52, -3633.71, -4047.75, 0.000, 0.000, 0.000, 14:30:15.069
166, -3600.23, -3420.07, -3634.68, -4044.22, 0.000, 0.000, 0.000, 14:30:15.069
167, -3604.34, -3418.66, -3644.97, -4050.44, 0.000, 0.000, 0.000, 14:30:15.070
168, -3605.42, -3422.30, -3641.80, -4052.01, 0.000, 0.000, 0.000, 14:30:15.070
169, -3602.96, -3416.83, -3638.04, -4044.93, 0.000, 0.000, 0.000, 14:30:15.070
170, -3593.84, -3408.66, -3634.15, -4044.89, 0.000, 0.000, 0.000, 14:30:15.070
171, -3583.70, -3402.24, -3623.94, -4047.96, 0.000, 0.000, 0.000, 14:30:15.070
172, -3587.44, -3413.11, -3629.63, -4052.40, 0.000, 0.000, 0.000, 14:30:15.071
173, -3598.54, -3410.52, -3634.73, -4048.74, 0.000, 0.000, 0.000, 14:30:15.071
174, -3599.84, -3412.62, -3639.12, -4050.22, 0.000, 0.000, 0.000, 14:30:15.071
175, -3591.98, -3411.85, -3639.86, -4047.12, 0.000, 0.000, 0.000, 14:30:15.071
176, -3588.04, -3405.54, -3639.45, -4044.85, 0.000, 0.000, 0.000, 14:30:15.071
177, -3583.56, -3403.17, -3628.24, -4026.38, 0.000, 0.000, 0.000, 14:30:15.072
178, -3585.06, -3400.03, -3632.34, -4039.65, 0.000, 0.000, 0.000, 14:30:15.072
179, -3593.49, -3402.64, -3634.95, -4043.02, 0.000, 0.000, 0.000, 14:30:15.072
180, -3595.95, -3419.66, -3639.31, -4055.49, 0.000, 0.000, 0.000, 14:30:15.072
181, -3587.98, -3413.79, -3630.95, -4035.63, 0.000, 0.000, 0.000, 14:30:15.072
182, -3575.47, -3393.29, -3615.85, -4033.38, 0.000, 0.000, 0.000, 14:30:15.072
183, -3575.70, -3389.70, -3616.03, -4027.84, 0.000, 0.000, 0.000, 14:30:15.073
184, -3575.82, -3391.51, -3629.58, -4030.35, 0.000, 0.000, 0.000, 14:30:15.073
185, -3582.45, -3388.43, -3625.25, -4035.13, 0.000, 0.000, 0.000, 14:30:15.077
186, -3584.82, -3393.35, -3631.13, -4025.98, 0.000, 0.000, 0.000, 14:30:15.078
187, -3578.88, -3393.61, -3626.26, -4027.48, 0.000, 0.000, 0.000, 14:30:15.079
188, -3598.66, -3399.18, -3632.11, -4042.34, 0.000, 0.000, 0.000, 14:30:15.079
189, -3601.61, -3399.74, -3643.47, -4048.17, 0.000, 0.000, 0.000, 14:30:15.080
190, -3604.69, -3408.77, -3646.14, -4049.05, 0.000, 0.000, 0.000, 14:30:15.080
191, -3592.36, -3398.35, -3632.33, -4034.06, 0.000, 0.000, 0.000, 14:30:15.081
192, -3595.31, -3400.85, -3630.18, -4033.07, 0.000, 0.000, 0.000, 14:30:15.081
193, -3597.27, -3400.17, -3632.19, -4042.49, 0.000, 0.000, 0.000, 14:30:15.083
194, -3595.13, -3394.36, -3635.27, -4037.77, 0.000, 0.000, 0.000, 14:30:15.083
195, -3588.35, -3389.63, -3633.52, -4029.06, 0.000, 0.000, 0.000, 14:30:15.083
196, -3590.72, -3394.55, -3634.35, -4040.25, 0.000, 0.000, 0.000, 14:30:15.084
197, -3593.96, -3403.30, -3641.24, -4047.90, 0.000, 0.000, 0.000, 14:30:15.085
198, -3597.77, -3402.11, -3643.57, -4038.75, 0.000, 0.000, 0.000, 14:30:15.086
199, -3596.14, -3403.06, -3639.07, -4042.66, 0.000, 0.000, 0.000, 14:30:15.086
200, -3595.17, -3404.24, -3636.31, -4054.10, 0.000, 0.000, 0.000, 14:30:15.086
0, -3598.90, -3410.09, -3643.22, -4049.19, 0.000, 0.000, 0.000, 14:30:15.086
1, -3593.70, -3402.65, -3633.46, -4039.21, 0.000, 0.000, 0.000, 14:30:15.087
2, -3600.19, -3400.14, -3640.64, -4046.73, 0.000, 0.000, 0.000, 14:30:15.087
3, -3591.76, -3404.01, -3636.07, -4049.27, 0.000, 0.000, 0.000, 14:30:15.091
4, -3592.74, -3404.53, -3633.51, -4047.44, 0.000, 0.000, 0.000, 14:30:15.091
5, -3591.94, -3392.60, -3624.38, -4040.90, 0.000, 0.000, 0.000, 14:30:15.092
6, -3597.34, -3400.43, -3626.91, -4048.51, 0.000, 0.000, 0.000, 14:30:15.092
7, -3587.04, -3387.90, -3626.61, -4038.27, 0.000, 0.000, 0.000, 14:30:15.103
8, -3596.32, -3394.85, -3625.66, -4030.78, 0.000, 0.000, 0.000, 14:30:15.103
9, -3591.63, -3390.84, -3625.98, -4029.36, 0.000, 0.000, 0.000, 14:30:15.120
10, -3586.42, -3392.71, -3620.74, -4023.32, 0.000, 0.000, 0.000, 14:30:15.120
11, -3591.99, -3399.81, -3624.25, -4038.81, 0.000, 0.000, 0.000, 14:30:15.121
12, -3586.58, -3393.43, -3627.63, -4027.21, 0.000, 0.000, 0.000, 14:30:15.121
13, -3586.72, -3390.48, -3627.13, -4030.60, 0.000, 0.000, 0.000, 14:30:15.126
14, -3581.69, -3385.97, -3618.32, -4036.04, 0.000, 0.000, 0.000, 14:30:15.126
15, -3593.20, -3395.95, -3626.72, -4040.82, 0.000, 0.000, 0.000, 14:30:15.136
16, -3587.95, -3392.39, -3623.73, -4042.26, 0.000, 0.000, 0.000, 14:30:15.137
17, -3597.33, -3409.12, -3634.07, -4047.34, 0.000, 0.000, 0.000, 14:30:15.152
18, -3571.19, -3384.36, -3612.62, -4022.14, 0.000, 0.000, 0.000, 14:30:15.152
19, -3574.13, -3389.22, -3615.86, -4023.16, 0.000, 0.000, 0.000, 14:30:15.153
20, -3579.19, -3393.80, -3623.58, -4035.02, 0.000, 0.000, 0.000, 14:30:15.153
21, -3584.96, -3406.81, -3631.11, -4039.73, 0.000, 0.000, 0.000, 14:30:15.154
22, -3570.47, -3396.66, -3618.59, -4033.61, 0.000, 0.000, 0.000, 14:30:15.154
23, -3556.21, -3378.98, -3600.05, -4022.25, 0.000, 0.000, 0.000, 14:30:15.157
24, -3582.68, -3394.68, -3624.82, -4034.36, 0.000, 0.000, 0.000, 14:30:15.158
25, -3591.11, -3402.55, -3634.21, -4045.67, 0.000, 0.000, 0.000, 14:30:15.159
26, -3584.59, -3400.99, -3628.85, -4040.00, 0.000, 0.000, 0.000, 14:30:15.159
27, -3574.34, -3398.94, -3626.27, -4035.23, 0.000, 0.000, 0.000, 14:30:15.159
28, -3587.20, -3408.08, -3636.91, -4048.96, 0.000, 0.000, 0.000, 14:30:15.160
29, -3585.61, -3405.47, -3625.91, -4037.52, 0.000, 0.000, 0.000, 14:30:15.188
30, -3584.79, -3401.09, -3630.02, -4038.74, 0.000, 0.000, 0.000, 14:30:15.188
31, -3574.95, -3398.01, -3631.32, -4032.65, 0.000, 0.000, 0.000, 14:30:15.188
32, -3590.48, -3397.51, -3628.13, -4042.55, 0.000, 0.000, 0.000, 14:30:15.188
33, -3593.80, -3411.41, -3641.71, -4044.39, 0.000, 0.000, 0.000, 14:30:15.189
34, -3586.61, -3404.92, -3625.46, -4035.39, 0.000, 0.000, 0.000, 14:30:15.189
35, -3594.36, -3403.54, -3633.73, -4047.51, 0.000, 0.000, 0.000, 14:30:15.190
36, -3602.23, -3412.18, -3638.42, -4048.91, 0.000, 0.000, 0.000, 14:30:15.191
37, -3590.99, -3405.12, -3628.05, -4043.33, 0.000, 0.000, 0.000, 14:30:15.191
38, -3590.15, -3402.19, -3631.41, -4045.84, 0.000, 0.000, 0.000, 14:30:15.191
39, -3595.50, -3413.78, -3631.25, -4042.10, 0.000, 0.000, 0.000, 14:30:15.192
40, -3591.12, -3405.44, -3630.49, -4040.23, 0.000, 0.000, 0.000, 14:30:15.193
41, -3581.65, -3396.80, -3626.78, -4027.11, 0.000, 0.000, 0.000, 14:30:15.193
42, -3577.68, -3388.87, -3620.07, -4030.00, 0.000, 0.000, 0.000, 14:30:15.193
43, -3569.72, -3385.25, -3618.96, -4026.51, 0.000, 0.000, 0.000, 14:30:15.201
44, -3583.63, -3391.84, -3625.79, -4025.30, 0.000, 0.000, 0.000, 14:30:15.202
45, -3575.02, -3391.09, -3621.43, -4031.24, 0.000, 0.000, 0.000, 14:30:15.202
46, -3575.10, -3387.32, -3618.56, -4026.47, 0.000, 0.000, 0.000, 14:30:15.202
47, -3571.96, -3392.94, -3620.34, -4026.47, 0.000, 0.000, 0.000, 14:30:15.202
48, -3573.98, -3379.16, -3620.01, -4023.59, 0.000, 0.000, 0.000, 14:30:15.202
49, -3567.70, -3380.75, -3624.49, -4027.66, 0.000, 0.000, 0.000, 14:30:15.203
50, -3571.99, -3374.12, -3614.99, -4030.12, 0.000, 0.000, 0.000, 14:30:15.203
51, -3564.95, -3377.90, -3610.90, -4018.70, 0.000, 0.000, 0.000, 14:30:15.203
52, -3571.86, -3380.50, -3622.68, -4022.58, 0.000, 0.000, 0.000, 14:30:15.204
53, -3582.18, -3388.71, -3631.90, -4034.17, 0.000, 0.000, 0.000, 14:30:15.204
54, -3575.02, -3388.19, -3628.93, -4028.71, 0.000, 0.000, 0.000, 14:30:15.207
55, -3571.45, -3391.11, -3620.84, -4029.46, 0.000, 0.000, 0.000, 14:30:15.208
56, -3579.08, -3392.34, -3623.29, -4031.51, 0.000, 0.000, 0.000, 14:30:15.208
57, -3561.59, -3375.35, -3614.20, -4030.65, 0.000, 0.000, 0.000, 14:30:15.210
58, -3569.44, -3376.10, -3617.46, -4030.05, 0.000, 0.000, 0.000, 14:30:15.210
59, -3576.97, -3389.02, -3617.07, -4037.12, 0.000, 0.000, 0.000, 14:30:15.210
60, -3598.48, -3408.29, -3633.01, -4045.96, 0.000, 0.000, 0.000, 14:30:15.210
61, -3604.42, -3410.03, -3643.16, -4040.75, 0.000, 0.000, 0.000, 14:30:15.220
62, -3596.43, -3405.67, -3631.21, -4029.36, 0.000, 0.000, 0.000, 14:30:15.220
63, -3579.68, -3391.09, -3616.50, -4024.48, 0.000, 0.000, 0.000, 14:30:15.221
64, -3588.10, -3398.37, -3624.01, -4033.27, 0.000, 0.000, 0.000, 14:30:15.221
65, -3587.10, -3407.11, -3630.67, -4044.28, 0.000, 0.000, 0.000, 14:30:15.221
66, -3599.98, -3400.99, -3629.56, -4036.47, 0.000, 0.000, 0.000, 14:30:15.221
67, -3592.96, -3403.22, -3632.62, -4037.45, 0.000, 0.000, 0.000, 14:30:15.222
68, -3589.08, -3410.31, -3634.03, -4032.56, 0.000, 0.000, 0.000, 14:30:15.222
69, -3590.49, -3401.26, -3633.17, -4029.32, 0.000, 0.000, 0.000, 14:30:15.224
70, -3588.80, -3392.78, -3618.74, -4020.75, 0.000, 0.000, 0.000, 14:30:15.224
71, -3585.30, -3395.37, -3612.26, -4014.79, 0.000, 0.000, 0.000, 14:30:15.224
72, -3575.62, -3384.27, -3607.15, -4007.57, 0.000, 0.000, 0.000, 14:30:15.224
73, -3579.65, -3386.76, -3610.67, -4010.54, 0.000, 0.000, 0.000, 14:30:15.234
74, -3583.20, -3389.97, -3611.94, -4011.28, 0.000, 0.000, 0.000, 14:30:15.234
75, -3588.07, -3400.80, -3615.41, -4029.77, 0.000, 0.000, 0.000, 14:30:15.236
76, -3575.20, -3393.75, -3605.69, -4010.13, 0.000, 0.000, 0.000, 14:30:15.236
77, -3579.17, -3390.22, -3604.25, -4014.52, 0.000, 0.000, 0.000, 14:30:15.236
78, -3570.80, -3378.83, -3597.22, -4004.39, 0.000, 0.000, 0.000, 14:30:15.236
79, -3568.50, -3383.43, -3603.43, -4012.80, 0.000, 0.000, 0.000, 14:30:15.237
80, -3586.10, -3391.43, -3620.61, -4022.25, 0.000, 0.000, 0.000, 14:30:15.237
81, -3575.68, -3391.82, -3614.51, -4021.13, 0.000, 0.000, 0.000, 14:30:15.238
82, -3573.00, -3386.43, -3610.21, -4025.56, 0.000, 0.000, 0.000, 14:30:15.238
83, -3577.84, -3375.24, -3614.67, -4015.79, 0.000, 0.000, 0.000, 14:30:15.239
84, -3582.73, -3383.12, -3614.85, -4016.31, 0.000, 0.000, 0.000, 14:30:15.239
85, -3579.06, -3378.57, -3616.46, -4019.97, 0.000, 0.000, 0.000, 14:30:15.241
86, -3568.42, -3371.76, -3612.22, -4018.91, 0.000, 0.000, 0.000, 14:30:15.241
87, -3572.58, -3378.71, -3618.00, -4037.44, 0.000, 0.000, 0.000, 14:30:15.244
88, -3579.46, -3387.72, -3614.82, -4029.63, 0.000, 0.000, 0.000, 14:30:15.244
89, -3589.64, -3400.05, -3619.52, -4032.53, 0.000, 0.000, 0.000, 14:30:15.244
90, -3579.36, -3397.26, -3616.60, -4034.15, 0.000, 0.000, 0.000, 14:30:15.244
91, -3586.54, -3401.75, -3626.85, -4036.73, 0.000, 0.000, 0.000, 14:30:15.255
92, -3594.75, -3406.71, -3632.75, -4043.24, 0.000, 0.000, 0.000, 14:30:15.256
93, -3598.00, -3402.76, -3634.90, -4035.91, 0.000, 0.000, 0.000, 14:30:15.257
94, -3585.35, -3400.63, -3620.90, -4043.02, 0.000, 0.000, 0.000, 14:30:15.257
95, -3592.94, -3401.18, -3614.71, -4042.04, 0.000, 0.000, 0.000, 14:30:15.257
96, -3591.62, -3414.39, -3620.52, -4036.71, 0.000, 0.000, 0.000, 14:30:15.257
97, -3595.45, -3403.30, -3623.46, -4029.55, 0.000, 0.000, 0.000, 14:30:15.259
98, -3607.66, -3419.75, -3630.23, -4042.66, 0.000, 0.000, 0.000, 14:30:15.259
99, -3599.93, -3419.00, -3623.57, -4054.32, 0.000, 0.000, 0.000, 14:30:15.267
100, -3608.29, -3424.36, -3633.92, -4053.82, 0.000, 0.000, 0.000, 14:30:15.268
101, -3589.55, -3411.57, -3624.74, -4040.67, 0.000, 0.000, 0.000, 14:30:15.268
102, -3585.65, -3404.59, -3615.58, -4028.97, 0.000, 0.000, 0.000, 14:30:15.268
103, -3579.85, -3393.44, -3617.59, -4029.75, 0.000, 0.000, 0.000, 14:30:15.269
104, -3584.33, -3398.10, -3620.32, -4036.81, 0.000, 0.000, 0.000, 14:30:15.269
105, -3596.82, -3410.09, -3632.12, -4049.74, 0.000, 0.000, 0.000, 14:30:15.270
106, -3595.06, -3396.84, -3620.74, -4047.21, 0.000, 0.000, 0.000, 14:30:15.270
107, -3583.77, -3399.36, -3619.85, -4037.77, 0.000, 0.000, 0.000, 14:30:15.270
108, -3586.57, -3406.26, -3618.36, -4043.25, 0.000, 0.000, 0.000, 14:30:15.270
109, -3574.49, -3391.03, -3606.68, -4022.81, 0.000, 0.000, 0.000, 14:30:15.271
110, -3577.59, -3390.64, -3610.62, -4029.49, 0.000, 0.000, 0.000, 14:30:15.271
111, -3578.95, -3391.35, -3618.37, -4039.28, 0.000, 0.000, 0.000, 14:30:15.271
112, -3579.66, -3395.88, -3617.94, -4031.22, 0.000, 0.000, 0.000, 14:30:15.271
113, -3573.91, -3390.85, -3615.71, -4028.37, 0.000, 0.000, 0.000, 14:30:15.272
114, -3575.74, -3386.05, -3620.55, -4033.84, 0.000, 0.000, 0.000, 14:30:15.272
115, -3581.14, -3398.76, -3639.81, -4050.00, 0.000, 0.000, 0.000, 14:30:15.273
116, -3604.43, -3407.97, -3646.32, -4048.73, 0.000, 0.000, 0.000, 14:30:15.273
117, -3584.34, -3397.89, -3628.60, -4040.72, 0.000, 0.000, 0.000, 14:30:15.274
118, -3569.74, -3377.74, -3611.67, -4021.74, 0.000, 0.000, 0.000, 14:30:15.274
119, -3556.65, -3368.33, -3602.37, -4023.16, 0.000, 0.000, 0.000, 14:30:15.290
120, -3574.48, -3381.04, -3614.97, -4018.49, 0.000, 0.000, 0.000, 14:30:15.290
121, -3578.17, -3388.90, -3619.54, -4034.25, 0.000, 0.000, 0.000, 14:30:15.291
122, -3580.94, -3389.78, -3619.09, -4032.91, 0.000, 0.000, 0.000, 14:30:15.291
123, -3581.27, -3398.95, -3623.71, -4039.36, 0.000, 0.000, 0.000, 14:30:15.292
124, -3589.30, -3412.20, -3626.29, -4044.65, 0.000, 0.000, 0.000, 14:30:15.292
125, -3589.26, -3397.35, -3616.90, -4027.40, 0.000, 0.000, 0.000, 14:30:15.303
126, -3582.87, -3395.08, -3615.51, -4029.29, 0.000, 0.000, 0.000, 14:30:15.303
127, -3582.87, -3397.33, -3612.75, -4027.88, 0.000, 0.000, 0.000, 14:30:15.304
128, -3593.59, -3408.73, -3627.77, -4042.96, 0.000, 0.000, 0.000, 14:30:15.304
129, -3589.52, -3409.06, -3625.05, -4043.83, 0.000, 0.000, 0.000, 14:30:15.305
130, -3576.05, -3392.08, -3613.52, -4035.35, 0.000, 0.000, 0.000, 14:30:15.305
131, -3572.48, -3380.85, -3608.73, -4027.73, 0.000, 0.000, 0.000, 14:30:15.305
132, -3575.92, -3387.09, -3613.83, -4033.92, 0.000, 0.000, 0.000, 14:30:15.305
133, -3586.54, -3394.28, -3634.11, -4046.91, 0.000, 0.000, 0.000, 14:30:15.305
134, -3571.55, -3381.55, -3618.72, -4027.75, 0.000, 0.000, 0.000, 14:30:15.306
135, -3559.66, -3371.70, -3605.39, -4018.46, 0.000, 0.000, 0.000, 14:30:15.306
136, -3547.65, -3361.86, -3595.92, -4023.60, 0.000, 0.000, 0.000, 14:30:15.306
137, -3557.76, -3366.98, -3608.50, -4029.56, 0.000, 0.000, 0.000, 14:30:15.307
138, -3553.29, -3358.67, -3603.00, -4019.57, 0.000, 0.000, 0.000, 14:30:15.307
139, -3572.24, -3384.65, -3620.10, -4033.07, 0.000, 0.000, 0.000, 14:30:15.307
140, -3567.05, -3375.73, -3614.73, -4032.67, 0.000, 0.000, 0.000, 14:30:15.307
141, -3569.99, -3375.84, -3616.73, -4026.06, 0.000, 0.000, 0.000, 14:30:15.313
142, -3569.77, -3374.83, -3620.61, -4027.78, 0.000, 0.000, 0.000, 14:30:15.314
143, -3569.67, -3370.95, -3623.35, -4029.01, 0.000, 0.000, 0.000, 14:30:15.324
144, -3557.74, -3360.85, -3605.02, -4015.62, 0.000, 0.000, 0.000, 14:30:15.324
145, -3539.06, -3340.98, -3584.45, -3988.81, 0.000, 0.000, 0.000, 14:30:15.324
146, -3568.33, -3366.18, -3617.02, -4011.04, 0.000, 0.000, 0.000, 14:30:15.325
147, -3578.21, -3361.62, -3619.57, -4008.75, 0.000, 0.000, 0.000, 14:30:15.339
148, -3555.05, -3353.39, -3609.22, -4014.80, 0.000, 0.000, 0.000, 14:30:15.340
149, -3578.08, -3373.67, -3618.50, -4018.54, 0.000, 0.000, 0.000, 14:30:15.343
150, -3581.96, -3382.91, -3629.64, -4035.67, 0.000, 0.000, 0.000, 14:30:15.343
151, -3581.94, -3386.30, -3623.62, -4034.11, 0.000, 0.000, 0.000, 14:30:15.343
152, -3578.49, -3382.72, -3617.12, -4019.52, 0.000, 0.000, 0.000, 14:30:15.344
153, -3553.47, -3349.99, -3594.27, -3990.06, 0.000, 0.000, 0.000, 14:30:15.355
154, -3556.26, -3362.62, -3607.74, -3998.71, 0.000, 0.000, 0.000, 14:30:15.356
155, -3553.33, -3349.42, -3603.04, -4005.78, 0.000, 0.000, 0.000, 14:30:15.361
156, -3552.10, -3358.50, -3595.52, -4014.35, 0.000, 0.000, 0.000, 14:30:15.361
157, -3544.49, -3350.47, -3592.82, -4005.56, 0.000, 0.000, 0.000, 14:30:15.361
158, -3560.90, -3361.36, -3606.18, -4008.50, 0.000, 0.000, 0.000, 14:30:15.362
159, -3571.08, -3359.69, -3608.18, -4012.21, 0.000, 0.000, 0.000, 14:30:15.369
160, -3564.42, -3363.58, -3602.21, -4016.81, 0.000, 0.000, 0.000, 14:30:15.370
161, -3554.53, -3363.10, -3597.41, -4012.29, 0.000, 0.000, 0.000, 14:30:15.372
162, -3557.17, -3354.59, -3594.29, -4007.49, 0.000, 0.000, 0.000, 14:30:15.374
163, -3549.97, -3350.41, -3589.02, -4000.64, 0.000, 0.000, 0.000, 14:30:15.374
164, -3563.99, -3374.61, -3603.95, -4015.73, 0.000, 0.000, 0.000, 14:30:15.374
165, -3558.15, -3358.33, -3598.05, -4006.27, 0.000, 0.000, 0.000, 14:30:15.375
166, -3573.74, -3378.36, -3620.16, -4034.59, 0.000, 0.000, 0.000, 14:30:15.375
167, -3569.03, -3364.51, -3614.14, -4023.24, 0.000, 0.000, 0.000, 14:30:15.376
168, -3567.14, -3377.39, -3608.97, -4023.82, 0.000, 0.000, 0.000, 14:30:15.377
169, -3568.30, -3371.39, -3597.48, -4009.15, 0.000, 0.000, 0.000, 14:30:15.379
170, -3569.92, -3371.93, -3615.23, -4024.53, 0.000, 0.000, 0.000, 14:30:15.379
171, -3576.05, -3367.80, -3615.88, -4021.06, 0.000, 0.000, 0.000, 14:30:15.379
172, -3571.41, -3374.10, -3618.69, -4027.42, 0.000, 0.000, 0.000, 14:30:15.379
173, -3566.13, -3355.11, -3615.98, -4012.01, 0.000, 0.000, 0.000, 14:30:15.406
174, -3570.11, -3375.99, -3613.28, -4014.83, 0.000, 0.000, 0.000, 14:30:15.406
175, -3574.51, -3386.32, -3617.81, -4027.60, 0.000, 0.000, 0.000, 14:30:15.406
176, -3571.41, -3389.42, -3620.50, -4032.34, 0.000, 0.000, 0.000, 14:30:15.406
177, -3583.87, -3397.50, -3631.71, -4038.98, 0.000, 0.000, 0.000, 14:30:15.406
178, -3591.03, -3385.02, -3633.20, -4026.57, 0.000, 0.000, 0.000, 14:30:15.406
179, -3617.32, -3415.02, -3654.15, -4065.95, 0.000, 0.000, 0.000, 14:30:15.407
180, -3612.38, -3419.85, -3650.65, -4064.39, 0.000, 0.000, 0.000, 14:30:15.407
181, -3600.02, -3412.42, -3638.91, -4045.21, 0.000, 0.000, 0.000, 14:30:15.407
182, -3593.48, -3411.06, -3637.37, -4033.41, 0.000, 0.000, 0.000, 14:30:15.407
183, -3593.66, -3402.74, -3624.37, -4036.68, 0.000, 0.000, 0.000, 14:30:15.408
184, -3605.27, -3421.65, -3641.31, -4056.59, 0.000, 0.000, 0.000, 14:30:15.408
185, -3593.16, -3411.98, -3629.35, -4041.82, 0.000, 0.000, 0.000, 14:30:15.409
186, -3595.72, -3401.38, -3631.19, -4043.47, 0.000, 0.000, 0.000, 14:30:15.409
187, -3589.81, -3404.03, -3636.21, -4043.88, 0.000, 0.000, 0.000, 14:30:15.410
188, -3585.00, -3399.25, -3632.47, -4031.46, 0.000, 0.000, 0.000, 14:30:15.410
189, -3584.33, -3395.97, -3632.26, -4031.15, 0.000, 0.000, 0.000, 14:30:15.410
190, -3583.35, -3392.35, -3625.72, -4031.96, 0.000, 0.000, 0.000, 14:30:15.410
191, -3586.05, -3393.19, -3628.52, -4040.72, 0.000, 0.000, 0.000, 14:30:15.423
192, -3589.86, -3403.79, -3630.25, -4045.57, 0.000, 0.000, 0.000, 14:30:15.424
193, -3585.69, -3394.40, -3626.62, -4035.98, 0.000, 0.000, 0.000, 14:30:15.425
194, -3573.90, -3390.41, -3623.50, -4041.00, 0.000, 0.000, 0.000, 14:30:15.425
195, -3578.56, -3393.38, -3628.98, -4048.67, 0.000, 0.000, 0.000, 14:30:15.425
196, -3582.58, -3392.87, -3625.59, -4055.22, 0.000, 0.000, 0.000, 14:30:15.425
197, -3577.01, -3385.05, -3611.90, -4035.06, 0.000, 0.000, 0.000, 14:30:15.426
198, -3576.85, -3378.98, -3617.24, -4026.96, 0.000, 0.000, 0.000, 14:30:15.426
199, -3576.39, -3382.14, -3617.05, -4022.58, 0.000, 0.000, 0.000, 14:30:15.427
200, -3579.69, -3391.86, -3626.44, -4036.86, 0.000, 0.000, 0.000, 14:30:15.427
0, -3583.52, -3397.74, -3628.26, -4036.15, 0.000, 0.000, 0.000, 14:30:15.427
1, -3593.25, -3413.62, -3637.23, -4048.97, 0.000, 0.000, 0.000, 14:30:15.428
2, -3584.89, -3407.31, -3636.69, -4039.43, 0.000, 0.000, 0.000, 14:30:15.428
3, -3592.19, -3404.48, -3636.53, -4046.06, 0.000, 0.000, 0.000, 14:30:15.435
4, -3577.17, -3404.70, -3627.26, -4047.46, 0.000, 0.000, 0.000, 14:30:15.436
5, -3576.75, -3396.27, -3620.66, -4035.29, 0.000, 0.000, 0.000, 14:30:15.436
6, -3573.92, -3400.51, -3612.73, -4022.89, 0.000, 0.000, 0.000, 14:30:15.436
7, -3573.48, -3391.24, -3614.70, -4023.33, 0.000, 0.000, 0.000, 14:30:15.444
8, -3582.42, -3400.11, -3617.55, -4021.25, 0.000, 0.000, 0.000, 14:30:15.444
9, -3582.76, -3387.48, -3616.45, -4025.37, 0.000, 0.000, 0.000, 14:30:15.447
10, -3573.85, -3393.71, -3620.37, -4027.10, 0.000, 0.000, 0.000, 14:30:15.447
11, -3591.27, -3412.21, -3629.28, -4039.66, 0.000, 0.000, 0.000, 14:30:15.447
12, -3603.08, -3406.62, -3638.19, -4040.59, 0.000, 0.000, 0.000, 14:30:15.447
13, -3596.73, -3395.00, -3630.06, -4028.82, 0.000, 0.000, 0.000, 14:30:15.458
14, -3595.75, -3407.00, -3636.31, -4038.74, 0.000, 0.000, 0.000, 14:30:15.459
15, -3590.57, -3405.33, -3631.48, -4033.06, 0.000, 0.000, 0.000, 14:30:15.652
16, -3580.73, -3397.44, -3622.73, -4023.31, 0.000, 0.000, 0.000, 14:30:15.652
17, -3579.52, -3384.65, -3623.15, -4023.16, 0.000, 0.000, 0.000, 14:30:15.653
18, -3597.71, -3406.86, -3635.93, -4037.49, 0.000, 0.000, 0.000, 14:30:15.653
19, -3592.65, -3397.43, -3633.61, -4040.33, 0.000, 0.000, 0.000, 14:30:15.653
20, -3584.71, -3390.00, -3625.08, -4033.67, 0.000, 0.000, 0.000, 14:30:15.653
21, -3568.94, -3382.82, -3619.08, -4020.89, 0.000, 0.000, 0.000, 14:30:15.653
22, -3552.76, -3364.91, -3601.72, -4012.77, 0.000, 0.000, 0.000, 14:30:15.654
23, -3579.61, -3393.58, -3630.07, -4046.43, 0.000, 0.000, 0.000, 14:30:15.654
24, -3579.50, -3381.71, -3618.16, -4034.50, 0.000, 0.000, 0.000, 14:30:15.654
25, -3583.06, -3397.74, -3628.95, -4049.11, 0.000, 0.000, 0.000, 14:30:15.655
26, -3584.85, -3397.88, -3630.10, -4045.73, 0.000, 0.000, 0.000, 14:30:15.655
27, -3590.49, -3405.51, -3638.32, -4038.06, 0.000, 0.000, 0.000, 14:30:15.655
28, -3582.68, -3398.16, -3632.51, -4033.16, 0.000, 0.000, 0.000, 14:30:15.655
29, -3565.81, -3390.90, -3616.33, -4028.21, 0.000, 0.000, 0.000, 14:30:15.656
30, -3576.39, -3391.92, -3618.48, -4034.25, 0.000, 0.000, 0.000, 14:30:15.656
31, -3588.65, -3402.94, -3635.05, -4050.59, 0.000, 0.000, 0.000, 14:30:15.656
32, -3588.15, -3404.91, -3626.22, -4037.34, 0.000, 0.000, 0.000, 14:30:15.657
33, -3588.14, -3395.86, -3623.06, -4026.31, 0.000, 0.000, 0.000, 14:30:15.657
34, -3582.55, -3393.80, -3622.07, -4023.09, 0.000, 0.000, 0.000, 14:30:15.657
35, -3570.59, -3381.97, -3609.56, -4021.69, 0.000, 0.000, 0.000, 14:30:15.657
36, -3578.03, -3390.77, -3614.63, -4025.57, 0.000, 0.000, 0.000, 14:30:15.657
37, -3590.05, -3398.47, -3623.15, -4027.61, 0.000, 0.000, 0.000, 14:30:15.658
38, -3597.41, -3401.64, -3623.68, -4032.54, 0.000, 0.000, 0.000, 14:30:15.658
39, -3592.58, -3392.85, -3626.87, -4027.67, 0.000, 0.000, 0.000, 14:30:15.658
40, -3594.00, -3391.92, -3627.31, -4034.64, 0.000, 0.000, 0.000, 14:30:15.658
41, -3588.37, -3403.56, -3621.35, -4035.21, 0.000, 0.000, 0.000, 14:30:15.658
42, -3591.59, -3402.75, -3630.63, -4042.99, 0.000, 0.000, 0.000, 14:30:15.659
43, -3598.84, -3407.54, -3633.26, -4042.03, 0.000, 0.000, 0.000, 14:30:15.659
44, -3605.16, -3422.43, -3640.33, -4048.14, 0.000, 0.000, 0.000, 14:30:15.659
45, -3621.63, -3433.66, -3652.01, -4061.49, 0.000, 0.000, 0.000, 14:30:15.659
46, -3611.34, -3418.68, -3645.35, -4056.56, 0.000, 0.000, 0.000, 14:30:15.659
47, -3600.93, -3411.90, -3631.54, -4045.34, 0.000, 0.000, 0.000, 14:30:15.665
48, -3595.66, -3404.08, -3636.96, -4036.96, 0.000, 0.000, 0.000, 14:30:15.665
49, -3595.25, -3407.22, -3640.78, -4032.70, 0.000, 0.000, 0.000, 14:30:15.667
50, -3606.64, -3421.62, -3645.59, -4050.77, 0.000, 0.000, 0.000, 14:30:15.667
51, -3603.47, -3412.23, -3643.14, -4051.60, 0.000, 0.000, 0.000, 14:30:15.668
52, -3604.73, -3406.73, -3644.71, -4048.14, 0.000, 0.000, 0.000, 14:30:15.669
53, -3592.54, -3407.73, -3633.70, -4041.75, 0.000, 0.000, 0.000, 14:30:15.670
54, -3604.44, -3420.16, -3646.31, -4051.98, 0.000, 0.000, 0.000, 14:30:15.670
55, -3604.02, -3413.70, -3648.94, -4052.39, 0.000, 0.000, 0.000, 14:30:15.671
56, -3595.25, -3408.57, -3632.17, -4049.05, 0.000, 0.000, 0.000, 14:30:15.671
57, -3610.39, -3424.69, -3644.55, -4062.05, 0.000, 0.000, 0.000, 14:30:15.686
58, -3594.92, -3408.92, -3631.10, -4048.05, 0.000, 0.000, 0.000, 14:30:15.687
59, -3589.89, -3394.99, -3634.98, -4054.63, 0.000, 0.000, 0.000, 14:30:15.687
60, -3604.06, -3412.41, -3635.16, -4049.51, 0.000, 0.000, 0.000, 14:30:15.687
61, -3572.31, -3390.35, -3610.22, -4027.48, 0.000, 0.000, 0.000, 14:30:15.700
62, -3588.48, -3398.53, -3621.58, -4037.82, 0.000, 0.000, 0.000, 14:30:15.700
63, -3589.88, -3397.27, -3623.83, -4048.86, 0.000, 0.000, 0.000, 14:30:15.719
64, -3588.11, -3396.77, -3618.93, -4043.72, 0.000, 0.000, 0.000, 14:30:15.719
65, -3575.32, -3388.94, -3618.26, -4035.68, 0.000, 0.000, 0.000, 14:30:15.728
66, -3599.18, -3404.65, -3640.42, -4048.22, 0.000, 0.000, 0.000, 14:30:15.728
67, -3597.51, -3402.94, -3634.16, -4039.92, 0.000, 0.000, 0.000, 14:30:15.729
68, -3578.10, -3393.43, -3628.42, -4019.12, 0.000, 0.000, 0.000, 14:30:15.729
69, -3592.32, -3400.47, -3624.34, -4039.76, 0.000, 0.000, 0.000, 14:30:15.768
70, -3588.68, -3395.88, -3630.48, -4029.08, 0.000, 0.000, 0.000, 14:30:15.769
71, -3594.52, -3401.33, -3633.70, -4028.67, 0.000, 0.000, 0.000, 14:30:15.770
72, -3587.67, -3392.65, -3627.84, -4036.29, 0.000, 0.000, 0.000, 14:30:15.772
73, -3591.29, -3393.87, -3623.67, -4035.15, 0.000, 0.000, 0.000, 14:30:15.774
74, -3603.90, -3397.14, -3639.57, -4045.55, 0.000, 0.000, 0.000, 14:30:15.774
75, -3581.25, -3382.55, -3622.62, -4030.64, 0.000, 0.000, 0.000, 14:30:15.798
76, -3570.49, -3381.61, -3616.42, -4015.59, 0.000, 0.000, 0.000, 14:30:15.798
77, -3563.58, -3374.33, -3600.46, -4003.98, 0.000, 0.000, 0.000, 14:30:15.799
78, -3575.96, -3381.52, -3617.23, -4021.93, 0.000, 0.000, 0.000, 14:30:15.799
79, -3587.58, -3391.15, -3628.46, -4030.07, 0.000, 0.000, 0.000, 14:30:15.799
80, -3563.53, -3377.32, -3607.20, -4012.50, 0.000, 0.000, 0.000, 14:30:15.799
81, -3547.76, -3359.33, -3591.81, -4017.73, 0.000, 0.000, 0.000, 14:30:15.804
82, -3548.97, -3357.53, -3584.76, -4004.16, 0.000, 0.000, 0.000, 14:30:15.804
83, -3552.19, -3348.10, -3586.03, -3995.33, 0.000, 0.000, 0.000, 14:30:15.805
84, -3572.09, -3365.68, -3607.85, -4021.47, 0.000, 0.000, 0.000, 14:30:15.805
85, -3560.24, -3352.86, -3592.99, -3993.90, 0.000, 0.000, 0.000, 14:30:15.825
86, -3573.72, -3392.10, -3609.25, -4030.40, 0.000, 0.000, 0.000, 14:30:15.825
87, -3594.01, -3410.64, -3635.21, -4044.36, 0.000, 0.000, 0.000, 14:30:15.835
88, -3576.68, -3396.96, -3629.81, -4035.44, 0.000, 0.000, 0.000, 14:30:15.836
89, -3559.10, -3386.87, -3612.32, -4021.88, 0.000, 0.000, 0.000, 14:30:15.836
90, -3570.45, -3389.23, -3619.87, -4017.28, 0.000, 0.000, 0.000, 14:30:15.836
91, -3575.19, -3403.29, -3628.65, -4041.12, 0.000, 0.000, 0.000, 14:30:15.855
92, -3581.95, -3402.22, -3633.16, -4044.54, 0.000, 0.000, 0.000, 14:30:15.855
93, -3591.66, -3415.52, -3640.96, -4057.87, 0.000, 0.000, 0.000, 14:30:15.884
94, -3591.76, -3403.59, -3635.79, -4049.54, 0.000, 0.000, 0.000, 14:30:15.884
95, -3593.98, -3411.01, -3640.68, -4052.91, 0.000, 0.000, 0.000, 14:30:15.885
96, -3586.94, -3390.77, -3621.67, -4040.77, 0.000, 0.000, 0.000, 14:30:15.885
97, -3595.89, -3407.07, -3651.27, -4057.43, 0.000, 0.000, 0.000, 14:30:15.885
98, -3601.89, -3418.12, -3653.09, -4051.44, 0.000, 0.000, 0.000, 14:30:15.885
99, -3604.49, -3417.37, -3650.26, -4069.10, 0.000, 0.000, 0.000, 14:30:15.886
100, -3594.57, -3399.20, -3635.94, -4043.19, 0.000, 0.000, 0.000, 14:30:15.886
101, -3585.70, -3393.55, -3623.76, -4044.30, 0.000, 0.000, 0.000, 14:30:15.893
102, -3590.34, -3399.15, -3630.77, -4040.63, 0.000, 0.000, 0.000, 14:30:15.893
103, -3595.30, -3403.11, -3638.57, -4050.79, 0.000, 0.000, 0.000, 14:30:15.924
104, -3580.44, -3401.65, -3619.55, -4036.03, 0.000, 0.000, 0.000, 14:30:15.925
105, -3579.16, -3404.05, -3624.15, -4030.64, 0.000, 0.000, 0.000, 14:30:15.926
106, -3572.02, -3397.12, -3619.48, -4033.06, 0.000, 0.000, 0.000, 14:30:15.926
107, -3583.13, -3396.12, -3625.90, -4042.63, 0.000, 0.000, 0.000, 14:30:15.927
108, -3572.23, -3384.95, -3618.00, -4037.58, 0.000, 0.000, 0.000, 14:30:15.927
109, -3562.62, -3374.97, -3606.12, -4020.04, 0.000, 0.000, 0.000, 14:30:15.938
110, -3566.61, -3388.96, -3615.85, -4022.15, 0.000, 0.000, 0.000, 14:30:15.938
111, -3585.42, -3397.98, -3628.61, -4039.33, 0.000, 0.000, 0.000, 14:30:15.953
112, -3576.96, -3399.12, -3620.85, -4034.31, 0.000, 0.000, 0.000, 14:30:15.953
113, -3571.49, -3392.04, -3605.61, -4011.26, 0.000, 0.000, 0.000, 14:30:15.954
114, -3583.82, -3399.79, -3619.74, -4031.56, 0.000, 0.000, 0.000, 14:30:15.954
115, -3584.74, -3400.52, -3628.46, -4037.71, 0.000, 0.000, 0.000, 14:30:15.972
116, -3588.97, -3397.78, -3628.72, -4035.92, 0.000, 0.000, 0.000, 14:30:15.972
117, -3585.85, -3404.97, -3632.41, -4044.42, 0.000, 0.000, 0.000, 14:30:15.985
118, -3587.95, -3393.21, -3633.97, -4029.50, 0.000, 0.000, 0.000, 14:30:15.985
119, -3591.35, -3384.69, -3632.48, -4027.60, 0.000, 0.000, 0.000, 14:30:15.986
120, -3592.83, -3385.62, -3638.08, -4036.26, 0.000, 0.000, 0.000, 14:30:15.986
121, -3607.81, -3411.75, -3650.74, -4042.23, 0.000, 0.000, 0.000, 14:30:16.003
122, -3599.41, -3415.18, -3648.19, -4040.08, 0.000, 0.000, 0.000, 14:30:16.004
123, -3605.39, -3405.83, -3646.10, -4046.96, 0.000, 0.000, 0.000, 14:30:16.013
124, -3589.51, -3403.63, -3636.12, -4047.54, 0.000, 0.000, 0.000, 14:30:16.014
125, -3571.01, -3379.15, -3618.89, -4035.55, 0.000, 0.000, 0.000, 14:30:16.014
126, -3578.57, -3386.00, -3624.85, -4033.59, 0.000, 0.000, 0.000, 14:30:16.015
127, -3577.13, -3382.76, -3628.93, -4037.67, 0.000, 0.000, 0.000, 14:30:16.043
128, -3566.06, -3371.49, -3616.38, -4018.36, 0.000, 0.000, 0.000, 14:30:16.043
129, -3557.02, -3362.44, -3597.99, -4015.09, 0.000, 0.000, 0.000, 14:30:16.045
130, -3561.04, -3365.72, -3601.60, -4018.00, 0.000, 0.000, 0.000, 14:30:16.046
131, -3581.52, -3395.23, -3621.88, -4035.65, 0.000, 0.000, 0.000, 14:30:16.051
132, -3582.29, -3398.57, -3617.43, -4037.65, 0.000, 0.000, 0.000, 14:30:16.051
133, -3590.12, -3413.05, -3629.42, -4045.46, 0.000, 0.000, 0.000, 14:30:16.058
134, -3608.72, -3421.81, -3642.91, -4059.58, 0.000, 0.000, 0.000, 14:30:16.058
135, -3594.12, -3409.75, -3639.02, -4043.46, 0.000, 0.000, 0.000, 14:30:16.073
136, -3592.72, -3403.78, -3632.21, -4030.64, 0.000, 0.000, 0.000, 14:30:16.073
137, -3594.40, -3409.39, -3631.25, -4038.44, 0.000, 0.000, 0.000, 14:30:16.073
138, -3582.91, -3388.19, -3616.24, -4024.77, 0.000, 0.000, 0.000, 14:30:16.074
139, -3574.62, -3380.77, -3605.00, -4023.04, 0.000, 0.000, 0.000, 14:30:16.088
140, -3572.19, -3386.95, -3600.64, -4015.52, 0.000, 0.000, 0.000, 14:30:16.088
141, -3573.13, -3379.99, -3603.98, -4010.62, 0.000, 0.000, 0.000, 14:30:16.104
142, -3587.76, -3393.17, -3617.99, -4026.75, 0.000, 0.000, 0.000, 14:30:16.104
143, -3603.29, -3412.88, -3640.99, -4046.52, 0.000, 0.000, 0.000, 14:30:16.104
144, -3582.91, -3397.96, -3624.24, -4031.53, 0.000, 0.000, 0.000, 14:30:16.104
145, -3583.75, -3403.05, -3619.56, -4033.70, 0.000, 0.000, 0.000, 14:30:16.118
146, -3579.76, -3392.21, -3614.84, -4024.77, 0.000, 0.000, 0.000, 14:30:16.118
147, -3573.46, -3381.20, -3615.59, -4014.33, 0.000, 0.000, 0.000, 14:30:16.152
148, -3571.51, -3376.87, -3606.05, -4019.51, 0.000, 0.000, 0.000, 14:30:16.152
149, -3566.69, -3379.07, -3601.33, -4014.20, 0.000, 0.000, 0.000, 14:30:16.152
150, -3570.75, -3385.00, -3614.12, -4021.03, 0.000, 0.000, 0.000, 14:30:16.153
151, -3581.55, -3388.61, -3613.41, -4025.18, 0.000, 0.000, 0.000, 14:30:16.153
152, -3584.37, -3389.23, -3609.62, -4009.20, 0.000, 0.000, 0.000, 14:30:16.153
153, -3569.27, -3377.31, -3599.03, -4003.45, 0.000, 0.000, 0.000, 14:30:16.153
154, -3557.30, -3372.13, -3598.50, -4001.59, 0.000, 0.000, 0.000, 14:30:16.153
155, -3570.70, -3381.84, -3609.49, -4029.67, 0.000, 0.000, 0.000, 14:30:16.171
156, -3566.83, -3383.79, -3607.59, -4027.16, 0.000, 0.000, 0.000, 14:30:16.171
157, -3569.40, -3378.36, -3605.01, -4017.69, 0.000, 0.000, 0.000, 14:30:16.193
158, -3573.10, -3386.47, -3615.14, -4023.85, 0.000, 0.000, 0.000, 14:30:16.193
159, -3550.67, -3366.33, -3599.43, -4001.39, 0.000, 0.000, 0.000, 14:30:16.194
160, -3568.95, -3386.77, -3621.40, -4019.21, 0.000, 0.000, 0.000, 14:30:16.194
161, -3567.39, -3390.25, -3610.60, -4036.60, 0.000, 0.000, 0.000, 14:30:16.202
162, -3586.38, -3403.67, -3625.58, -4040.18, 0.000, 0.000, 0.000, 14:30:16.202
163, -3596.76, -3408.71, -3637.46, -4057.85, 0.000, 0.000, 0.000, 14:30:16.208
164, -3601.48, -3408.81, -3645.08, -4060.15, 0.000, 0.000, 0.000, 14:30:16.208
165, -3603.01, -3421.10, -3652.94, -4060.22, 0.000, 0.000, 0.000, 14:30:16.238
166, -3600.26, -3418.24, -3646.78, -4056.68, 0.000, 0.000, 0.000, 14:30:16.238
167, -3591.12, -3408.36, -3638.42, -4043.61, 0.000, 0.000, 0.000, 14:30:16.238
168, -3607.32, -3421.06, -3649.14, -4055.32, 0.000, 0.000, 0.000, 14:30:16.239
169, -3600.25, -3408.57, -3648.80, -4046.82, 0.000, 0.000, 0.000, 14:30:16.239
170, -3596.61, -3399.12, -3635.10, -4040.20, 0.000, 0.000, 0.000, 14:30:16.239
171, -3601.64, -3398.08, -3636.22, -4047.44, 0.000, 0.000, 0.000, 14:30:16.241
172, -3607.14, -3414.99, -3643.74, -4061.16, 0.000, 0.000, 0.000, 14:30:16.241
173, -3580.68, -3394.46, -3625.42, -4038.43, 0.000, 0.000, 0.000, 14:30:16.276
174, -3586.35, -3391.03, -3624.79, -4038.68, 0.000, 0.000, 0.000, 14:30:16.276
175, -3577.81, -3393.90, -3617.75, -4031.68, 0.000, 0.000, 0.000, 14:30:16.284
176, -3585.32, -3400.43, -3630.32, -4044.39, 0.000, 0.000, 0.000, 14:30:16.284
177, -3593.75, -3404.56, -3634.60, -4049.67, 0.000, 0.000, 0.000, 14:30:16.285
178, -3579.12, -3393.11, -3619.39, -4038.44, 0.000, 0.000, 0.000, 14:30:16.285
179, -3573.27, -3398.00, -3624.34, -4032.32, 0.000, 0.000, 0.000, 14:30:16.285
180, -3579.95, -3388.93, -3628.96, -4023.46, 0.000, 0.000, 0.000, 14:30:16.285
181, -3575.07, -3384.70, -3613.67, -4018.60, 0.000, 0.000, 0.000, 14:30:16.306
182, -3582.91, -3405.47, -3626.44, -4038.22, 0.000, 0.000, 0.000, 14:30:16.306
183, -3588.93, -3405.02, -3632.82, -4041.41, 0.000, 0.000, 0.000, 14:30:16.313
184, -3583.38, -3404.09, -3630.87, -4039.53, 0.000, 0.000, 0.000, 14:30:16.313
185, -3578.58, -3400.36, -3624.48, -4041.64, 0.000, 0.000, 0.000, 14:30:16.314
186, -3559.09, -3385.07, -3611.89, -4027.36, 0.000, 0.000, 0.000, 14:30:16.314
187, -3583.56, -3397.70, -3627.17, -4035.97, 0.000, 0.000, 0.000, 14:30:16.402
188, -3599.35, -3402.50, -3639.89, -4041.46, 0.000, 0.000, 0.000, 14:30:16.403
189, -3585.14, -3399.01, -3635.02, -4034.81, 0.000, 0.000, 0.000, 14:30:16.404
190, -3586.11, -3401.07, -3632.99, -4043.56, 0.000, 0.000, 0.000, 14:30:16.405
191, -3572.99, -3388.98, -3623.84, -4025.31, 0.000, 0.000, 0.000, 14:30:16.405
192, -3561.59, -3389.74, -3614.52, -4029.16, 0.000, 0.000, 0.000, 14:30:16.405
193, -3582.70, -3401.12, -3626.61, -4038.37, 0.000, 0.000, 0.000, 14:30:16.409
194, -3586.88, -3395.19, -3623.45, -4037.78, 0.000, 0.000, 0.000, 14:30:16.409
195, -3591.42, -3405.49, -3623.10, -4047.14, 0.000, 0.000, 0.000, 14:30:16.410
196, -3584.63, -3398.33, -3624.20, -4033.87, 0.000, 0.000, 0.000, 14:30:16.410
