%OpenBCI Raw EEG Data
%
%Sample Rate = 200.0 Hz
%First Column = SampleIndex
%Last Column = Timestamp 
%Other Columns = EEG data in microvolts followed by Accel Data (in G) interleaved with Aux Data
0, -2947.68, -2756.65, -2975.78, -3362.40, 0.000, 0.000, 0.000, 14:27:17.929
1, -2939.17, -2745.45, -2964.67, -3362.80, 0.000, 0.000, 0.000, 14:27:17.934
2, -2940.18, -2733.59, -2959.54, -3360.18, 0.000, 0.000, 0.000, 14:27:17.937
3, -2937.28, -2754.16, -2956.11, -3393.36, 0.000, 0.000, 0.000, 14:27:17.943
4, -2932.18, -2739.89, -2956.11, -3364.06, 0.000, 0.000, 0.000, 14:27:17.949
5, -2938.70, -2749.33, -2965.23, -3356.98, 0.000, 0.000, 0.000, 14:27:17.952
6, -2951.40, -2752.83, -2978.33, -3351.47, 0.000, 0.000, 0.000, 14:27:17.970
7, -2936.70, -2752.15, -2965.55, -3390.44, 0.000, 0.000, 0.000, 14:27:17.988
8, -2936.31, -2740.67, -2963.69, -3355.56, 0.000, 0.000, 0.000, 14:27:17.988
9, -2928.62, -2724.52, -2954.54, -3353.84, 0.000, 0.000, 0.000, 14:27:17.990
10, -2924.92, -2735.24, -2949.23, -3379.13, 0.000, 0.000, 0.000, 14:27:17.990
11, -2917.76, -2716.59, -2943.86, -3345.52, 0.000, 0.000, 0.000, 14:27:17.991
12, -2906.12, -2710.56, -2936.06, -3328.24, 0.000, 0.000, 0.000, 14:27:17.991
13, -2906.84, -2704.45, -2933.24, -3350.79, 0.000, 0.000, 0.000, 14:27:18.001
14, -2921.02, -2724.72, -2951.20, -3349.46, 0.000, 0.000, 0.000, 14:27:18.002
15, -2900.62, -2695.90, -2925.99, -3341.07, 0.000, 0.000, 0.000, 14:27:18.003
16, -2894.67, -2683.49, -2926.90, -3320.33, 0.000, 0.000, 0.000, 14:27:18.003
17, -2905.13, -2707.91, -2933.77, -3335.15, 0.000, 0.000, 0.000, 14:27:18.004
18, -2875.61, -2677.74, -2906.75, -3306.39, 0.000, 0.000, 0.000, 14:27:18.004
19, -2873.68, -2673.77, -2907.64, -3308.79, 0.000, 0.000, 0.000, 14:27:18.088
20, -2923.42, -2717.70, -2946.75, -3340.93, 0.000, 0.000, 0.000, 14:27:18.089
21, -2886.21, -2690.98, -2908.58, -3315.15, 0.000, 0.000, 0.000, 14:27:18.090
22, -2880.64, -2681.87, -2916.59, -3308.08, 0.000, 0.000, 0.000, 14:27:18.093
23, -2894.00, -2694.72, -2916.76, -3336.57, 0.000, 0.000, 0.000, 14:27:18.094
24, -2880.85, -2692.82, -2921.85, -3341.97, 0.000, 0.000, 0.000, 14:27:18.095
25, -2868.24, -2655.02, -2901.19, -3277.18, 0.000, 0.000, 0.000, 14:27:18.097
26, -2885.89, -2668.84, -2915.40, -3282.43, 0.000, 0.000, 0.000, 14:27:18.100
27, -2891.72, -2701.66, -2921.65, -3342.56, 0.000, 0.000, 0.000, 14:27:18.101
28, -2892.77, -2697.36, -2914.97, -3328.71, 0.000, 0.000, 0.000, 14:27:18.118
29, -2954.14, -2757.07, -2975.40, -3362.33, 0.000, 0.000, 0.000, 14:27:18.119
30, -2918.59, -2721.88, -2943.92, -3353.07, 0.000, 0.000, 0.000, 14:27:18.119
31, -2898.50, -2712.51, -2929.72, -3330.33, 0.000, 0.000, 0.000, 14:27:18.139
32, -2916.09, -2719.21, -2943.89, -3342.02, 0.000, 0.000, 0.000, 14:27:18.140
33, -2897.61, -2693.90, -2915.61, -3323.19, 0.000, 0.000, 0.000, 14:27:18.141
34, -2870.77, -2668.82, -2900.96, -3314.34, 0.000, 0.000, 0.000, 14:27:18.141
35, -2886.07, -2691.69, -2907.79, -3322.71, 0.000, 0.000, 0.000, 14:27:18.142
36, -2867.41, -2656.62, -2885.98, -3248.64, 0.000, 0.000, 0.000, 14:27:18.143
37, -2887.11, -2686.98, -2914.81, -3351.72, 0.000, 0.000, 0.000, 14:27:18.145
38, -2877.68, -2678.15, -2910.65, -3316.69, 0.000, 0.000, 0.000, 14:27:18.146
39, -2869.22, -2678.69, -2900.88, -3307.88, 0.000, 0.000, 0.000, 14:27:18.146
40, -2864.23, -2668.91, -2904.27, -3315.43, 0.000, 0.000, 0.000, 14:27:18.147
41, -2910.83, -2724.15, -2942.52, -3346.96, 0.000, 0.000, 0.000, 14:27:18.170
42, -2876.96, -2673.79, -2916.93, -3303.53, 0.000, 0.000, 0.000, 14:27:18.170
43, -2857.18, -2663.94, -2895.99, -3308.06, 0.000, 0.000, 0.000, 14:27:18.173
44, -2917.64, -2720.31, -2939.50, -3366.17, 0.000, 0.000, 0.000, 14:27:18.173
45, -2886.47, -2673.99, -2918.76, -3293.77, 0.000, 0.000, 0.000, 14:27:18.174
46, -2867.47, -2670.15, -2899.39, -3329.16, 0.000, 0.000, 0.000, 14:27:18.175
47, -2868.40, -2670.57, -2909.01, -3328.19, 0.000, 0.000, 0.000, 14:27:18.176
48, -2874.60, -2677.39, -2904.42, -3318.47, 0.000, 0.000, 0.000, 14:27:18.178
49, -2879.12, -2680.13, -2911.16, -3322.99, 0.000, 0.000, 0.000, 14:27:18.178
50, -2903.23, -2705.38, -2936.31, -3319.39, 0.000, 0.000, 0.000, 14:27:18.179
51, -2898.72, -2693.27, -2932.51, -3339.07, 0.000, 0.000, 0.000, 14:27:18.182
52, -2889.40, -2688.39, -2923.80, -3308.05, 0.000, 0.000, 0.000, 14:27:18.182
53, -2900.64, -2711.13, -2931.33, -3347.85, 0.000, 0.000, 0.000, 14:27:18.184
54, -2877.74, -2682.21, -2914.81, -3290.90, 0.000, 0.000, 0.000, 14:27:18.184
55, -2899.39, -2709.88, -2933.59, -3349.47, 0.000, 0.000, 0.000, 14:27:18.196
56, -2933.22, -2731.91, -2953.67, -3346.60, 0.000, 0.000, 0.000, 14:27:18.308
57, -2905.79, -2700.94, -2931.45, -3327.72, 0.000, 0.000, 0.000, 14:27:18.308
58, -2901.08, -2690.49, -2925.93, -3319.50, 0.000, 0.000, 0.000, 14:27:18.308
59, -2893.90, -2692.60, -2921.90, -3322.02, 0.000, 0.000, 0.000, 14:27:18.309
60, -2880.51, -2683.36, -2909.37, -3306.70, 0.000, 0.000, 0.000, 14:27:18.310
61, -2872.99, -2688.12, -2896.02, -3307.23, 0.000, 0.000, 0.000, 14:27:18.311
62, -2893.36, -2692.52, -2913.85, -3313.20, 0.000, 0.000, 0.000, 14:27:18.311
63, -2873.77, -2691.60, -2900.34, -3321.92, 0.000, 0.000, 0.000, 14:27:18.312
64, -2866.96, -2659.27, -2889.22, -3288.19, 0.000, 0.000, 0.000, 14:27:18.328
65, -2912.64, -2700.73, -2931.20, -3334.04, 0.000, 0.000, 0.000, 14:27:18.329
66, -2895.99, -2676.27, -2914.77, -3322.50, 0.000, 0.000, 0.000, 14:27:18.329
67, -2894.59, -2707.25, -2931.71, -3345.76, 0.000, 0.000, 0.000, 14:27:18.332
68, -2929.00, -2741.71, -2951.51, -3368.61, 0.000, 0.000, 0.000, 14:27:18.332
69, -2896.54, -2718.88, -2934.20, -3343.02, 0.000, 0.000, 0.000, 14:27:18.333
70, -2873.77, -2692.85, -2907.22, -3324.66, 0.000, 0.000, 0.000, 14:27:18.333
71, -2877.74, -2686.85, -2908.05, -3315.48, 0.000, 0.000, 0.000, 14:27:18.334
72, -2886.11, -2683.74, -2904.08, -3331.70, 0.000, 0.000, 0.000, 14:27:18.334
73, -2875.00, -2669.45, -2902.79, -3318.60, 0.000, 0.000, 0.000, 14:27:18.335
74, -2903.76, -2700.83, -2918.30, -3320.91, 0.000, 0.000, 0.000, 14:27:18.335
75, -2877.83, -2681.98, -2907.39, -3303.57, 0.000, 0.000, 0.000, 14:27:18.336
76, -2881.76, -2700.41, -2914.88, -3331.21, 0.000, 0.000, 0.000, 14:27:18.337
77, -2903.36, -2714.60, -2926.48, -3323.77, 0.000, 0.000, 0.000, 14:27:18.337
78, -2886.27, -2697.86, -2920.58, -3328.70, 0.000, 0.000, 0.000, 14:27:18.337
79, -2881.90, -2680.39, -2907.30, -3314.27, 0.000, 0.000, 0.000, 14:27:18.338
80, -2899.30, -2695.07, -2922.55, -3321.09, 0.000, 0.000, 0.000, 14:27:18.338
81, -2900.43, -2702.22, -2912.97, -3339.33, 0.000, 0.000, 0.000, 14:27:18.339
82, -2890.60, -2680.71, -2913.57, -3310.51, 0.000, 0.000, 0.000, 14:27:18.339
83, -2896.63, -2695.95, -2923.90, -3330.63, 0.000, 0.000, 0.000, 14:27:18.340
84, -2889.26, -2681.54, -2922.48, -3318.89, 0.000, 0.000, 0.000, 14:27:18.341
85, -2875.27, -2673.02, -2910.78, -3301.24, 0.000, 0.000, 0.000, 14:27:18.346
86, -2893.21, -2697.94, -2936.54, -3326.18, 0.000, 0.000, 0.000, 14:27:18.347
87, -2892.42, -2688.79, -2923.59, -3326.41, 0.000, 0.000, 0.000, 14:27:18.361
88, -2914.43, -2712.36, -2929.17, -3352.73, 0.000, 0.000, 0.000, 14:27:18.362
89, -2904.04, -2709.71, -2934.89, -3346.02, 0.000, 0.000, 0.000, 14:27:18.405
90, -2899.79, -2684.47, -2922.80, -3326.65, 0.000, 0.000, 0.000, 14:27:18.406
91, -2884.74, -2669.33, -2909.73, -3309.30, 0.000, 0.000, 0.000, 14:27:18.407
92, -2907.60, -2707.04, -2931.78, -3327.19, 0.000, 0.000, 0.000, 14:27:18.408
93, -2895.24, -2687.47, -2932.16, -3337.40, 0.000, 0.000, 0.000, 14:27:18.408
94, -2897.66, -2682.55, -2919.45, -3301.81, 0.000, 0.000, 0.000, 14:27:18.411
95, -2899.80, -2690.71, -2926.34, -3321.14, 0.000, 0.000, 0.000, 14:27:18.412
96, -2900.53, -2707.91, -2931.52, -3336.25, 0.000, 0.000, 0.000, 14:27:18.444
97, -2883.54, -2678.84, -2907.73, -3318.01, 0.000, 0.000, 0.000, 14:27:18.446
98, -2911.71, -2714.97, -2925.64, -3340.54, 0.000, 0.000, 0.000, 14:27:18.447
99, -2886.96, -2685.03, -2920.92, -3318.01, 0.000, 0.000, 0.000, 14:27:18.447
100, -2880.80, -2669.37, -2911.02, -3304.77, 0.000, 0.000, 0.000, 14:27:18.447
101, -2911.41, -2707.68, -2929.50, -3330.67, 0.000, 0.000, 0.000, 14:27:18.448
102, -2888.65, -2686.18, -2919.47, -3327.46, 0.000, 0.000, 0.000, 14:27:18.448
103, -2884.07, -2675.76, -2910.43, -3306.03, 0.000, 0.000, 0.000, 14:27:18.457
104, -2923.57, -2724.28, -2940.85, -3354.47, 0.000, 0.000, 0.000, 14:27:18.463
105, -2908.67, -2712.07, -2931.80, -3341.37, 0.000, 0.000, 0.000, 14:27:18.464
106, -2887.44, -2683.53, -2909.52, -3317.64, 0.000, 0.000, 0.000, 14:27:18.464
107, -2892.80, -2684.20, -2915.72, -3312.62, 0.000, 0.000, 0.000, 14:27:18.465
108, -2898.37, -2700.35, -2914.28, -3338.68, 0.000, 0.000, 0.000, 14:27:18.466
109, -2892.41, -2685.56, -2918.34, -3301.93, 0.000, 0.000, 0.000, 14:27:18.505
110, -2918.77, -2725.39, -2938.36, -3351.31, 0.000, 0.000, 0.000, 14:27:18.521
111, -2917.19, -2720.38, -2930.07, -3339.54, 0.000, 0.000, 0.000, 14:27:18.527
112, -2891.85, -2690.68, -2915.60, -3317.07, 0.000, 0.000, 0.000, 14:27:18.527
113, -2897.20, -2704.53, -2924.76, -3339.77, 0.000, 0.000, 0.000, 14:27:18.528
114, -2877.35, -2676.37, -2906.24, -3308.51, 0.000, 0.000, 0.000, 14:27:18.528
115, -2876.11, -2677.97, -2897.73, -3315.19, 0.000, 0.000, 0.000, 14:27:18.529
116, -2906.97, -2715.02, -2936.54, -3332.26, 0.000, 0.000, 0.000, 14:27:18.530
117, -2873.81, -2680.04, -2906.41, -3304.14, 0.000, 0.000, 0.000, 14:27:18.530
118, -2877.39, -2674.76, -2905.26, -3309.32, 0.000, 0.000, 0.000, 14:27:18.530
119, -2884.13, -2686.13, -2912.64, -3331.31, 0.000, 0.000, 0.000, 14:27:18.532
120, -2864.21, -2670.99, -2900.96, -3312.09, 0.000, 0.000, 0.000, 14:27:18.533
121, -2878.39, -2674.81, -2900.74, -3318.88, 0.000, 0.000, 0.000, 14:27:18.534
122, -2910.07, -2716.53, -2941.54, -3351.68, 0.000, 0.000, 0.000, 14:27:18.534
123, -2889.81, -2692.35, -2927.93, -3324.96, 0.000, 0.000, 0.000, 14:27:18.600
124, -2885.17, -2684.48, -2918.77, -3315.54, 0.000, 0.000, 0.000, 14:27:18.601
125, -2884.15, -2673.15, -2910.81, -3300.92, 0.000, 0.000, 0.000, 14:27:18.617
126, -2868.03, -2665.56, -2898.06, -3294.39, 0.000, 0.000, 0.000, 14:27:18.636
127, -2891.45, -2682.22, -2913.36, -3320.53, 0.000, 0.000, 0.000, 14:27:18.640
128, -2901.68, -2691.29, -2927.76, -3319.22, 0.000, 0.000, 0.000, 14:27:18.642
129, -2911.24, -2694.06, -2928.17, -3332.01, 0.000, 0.000, 0.000, 14:27:18.643
130, -2887.64, -2679.83, -2911.29, -3310.59, 0.000, 0.000, 0.000, 14:27:18.643
131, -2900.31, -2701.62, -2930.70, -3329.96, 0.000, 0.000, 0.000, 14:27:18.646
132, -2875.20, -2678.51, -2912.66, -3316.78, 0.000, 0.000, 0.000, 14:27:18.648
133, -2892.97, -2691.79, -2913.69, -3326.75, 0.000, 0.000, 0.000, 14:27:18.649
134, -2913.71, -2713.68, -2944.74, -3332.84, 0.000, 0.000, 0.000, 14:27:18.649
135, -2898.39, -2698.30, -2934.23, -3332.61, 0.000, 0.000, 0.000, 14:27:18.649
136, -2898.60, -2691.09, -2922.20, -3322.93, 0.000, 0.000, 0.000, 14:27:18.650
137, -2883.98, -2687.45, -2916.59, -3326.03, 0.000, 0.000, 0.000, 14:27:18.651
138, -2864.21, -2669.15, -2893.27, -3300.26, 0.000, 0.000, 0.000, 14:27:18.652
139, -2862.06, -2668.19, -2892.07, -3307.18, 0.000, 0.000, 0.000, 14:27:18.662
140, -2952.19, -2757.93, -2968.89, -3368.64, 0.000, 0.000, 0.000, 14:27:18.663
141, -2910.44, -2728.08, -2951.26, -3341.11, 0.000, 0.000, 0.000, 14:27:18.664
142, -2895.21, -2708.24, -2921.02, -3330.97, 0.000, 0.000, 0.000, 14:27:18.664
143, -2913.63, -2709.73, -2944.92, -3343.13, 0.000, 0.000, 0.000, 14:27:18.665
144, -2894.56, -2695.23, -2921.23, -3330.22, 0.000, 0.000, 0.000, 14:27:18.665
145, -2883.92, -2688.47, -2924.15, -3327.66, 0.000, 0.000, 0.000, 14:27:18.666
146, -2903.48, -2701.77, -2936.02, -3343.68, 0.000, 0.000, 0.000, 14:27:18.666
147, -2885.12, -2688.51, -2917.34, -3318.69, 0.000, 0.000, 0.000, 14:27:18.667
148, -2877.44, -2676.28, -2907.84, -3304.13, 0.000, 0.000, 0.000, 14:27:18.667
149, -2890.59, -2683.08, -2915.13, -3313.78, 0.000, 0.000, 0.000, 14:27:18.668
150, -2876.10, -2663.44, -2896.81, -3294.40, 0.000, 0.000, 0.000, 14:27:18.668
151, -2875.03, -2676.19, -2910.53, -3306.69, 0.000, 0.000, 0.000, 14:27:18.677
152, -2917.53, -2719.92, -2942.75, -3339.89, 0.000, 0.000, 0.000, 14:27:18.677
153, -2899.52, -2697.67, -2924.65, -3323.49, 0.000, 0.000, 0.000, 14:27:18.724
154, -2876.31, -2686.36, -2907.69, -3318.13, 0.000, 0.000, 0.000, 14:27:18.728
155, -2893.73, -2703.93, -2917.34, -3310.89, 0.000, 0.000, 0.000, 14:27:18.729
156, -2877.10, -2678.17, -2903.41, -3304.93, 0.000, 0.000, 0.000, 14:27:18.729
157, -2873.71, -2682.62, -2902.99, -3307.21, 0.000, 0.000, 0.000, 14:27:18.732
158, -2890.74, -2694.36, -2916.09, -3314.89, 0.000, 0.000, 0.000, 14:27:18.732
159, -2862.84, -2671.32, -2904.54, -3307.56, 0.000, 0.000, 0.000, 14:27:18.733
160, -2881.68, -2677.26, -2907.06, -3313.89, 0.000, 0.000, 0.000, 14:27:18.733
161, -2915.84, -2725.52, -2938.11, -3341.20, 0.000, 0.000, 0.000, 14:27:18.734
162, -2895.09, -2694.13, -2920.01, -3328.31, 0.000, 0.000, 0.000, 14:27:18.734
163, -2862.67, -2666.48, -2896.06, -3298.58, 0.000, 0.000, 0.000, 14:27:18.748
164, -2903.45, -2708.61, -2930.45, -3338.96, 0.000, 0.000, 0.000, 14:27:18.748
165, -2889.73, -2699.83, -2919.96, -3324.04, 0.000, 0.000, 0.000, 14:27:18.751
166, -2868.45, -2673.19, -2899.72, -3312.16, 0.000, 0.000, 0.000, 14:27:18.752
167, -2876.80, -2678.44, -2902.77, -3315.58, 0.000, 0.000, 0.000, 14:27:18.769
168, -2893.35, -2684.06, -2927.80, -3326.09, 0.000, 0.000, 0.000, 14:27:18.770
169, -2871.26, -2658.61, -2902.47, -3297.54, 0.000, 0.000, 0.000, 14:27:18.782
170, -2895.32, -2698.74, -2928.37, -3326.20, 0.000, 0.000, 0.000, 14:27:18.782
171, -2884.05, -2672.89, -2911.62, -3312.16, 0.000, 0.000, 0.000, 14:27:18.783
172, -2878.12, -2683.68, -2913.71, -3322.02, 0.000, 0.000, 0.000, 14:27:18.783
173, -2905.11, -2705.34, -2937.34, -3325.94, 0.000, 0.000, 0.000, 14:27:18.784
174, -2890.51, -2689.59, -2930.04, -3313.11, 0.000, 0.000, 0.000, 14:27:18.784
175, -2877.76, -2684.39, -2911.27, -3324.13, 0.000, 0.000, 0.000, 14:27:18.818
176, -2927.56, -2726.50, -2957.24, -3344.93, 0.000, 0.000, 0.000, 14:27:18.819
177, -2901.71, -2708.12, -2929.89, -3329.30, 0.000, 0.000, 0.000, 14:27:18.823
178, -2884.85, -2687.58, -2911.48, -3310.79, 0.000, 0.000, 0.000, 14:27:18.823
179, -2900.18, -2712.33, -2930.85, -3327.33, 0.000, 0.000, 0.000, 14:27:18.824
180, -2897.82, -2699.88, -2927.05, -3329.42, 0.000, 0.000, 0.000, 14:27:18.824
181, -2886.59, -2688.89, -2912.78, -3322.92, 0.000, 0.000, 0.000, 14:27:18.828
182, -2929.45, -2732.65, -2950.89, -3345.29, 0.000, 0.000, 0.000, 14:27:18.828
183, -2916.88, -2718.29, -2942.32, -3342.45, 0.000, 0.000, 0.000, 14:27:18.855
184, -2912.37, -2709.58, -2930.99, -3338.88, 0.000, 0.000, 0.000, 14:27:18.855
185, -2917.97, -2707.31, -2950.41, -3348.22, 0.000, 0.000, 0.000, 14:27:18.855
186, -2894.66, -2683.13, -2927.62, -3330.16, 0.000, 0.000, 0.000, 14:27:18.856
187, -2879.55, -2666.91, -2913.61, -3318.21, 0.000, 0.000, 0.000, 14:27:18.872
188, -2899.38, -2700.92, -2932.54, -3338.23, 0.000, 0.000, 0.000, 14:27:18.872
189, -2890.33, -2679.00, -2928.65, -3323.79, 0.000, 0.000, 0.000, 14:27:18.876
190, -2875.43, -2663.22, -2913.21, -3311.56, 0.000, 0.000, 0.000, 14:27:18.876
191, -2882.98, -2659.56, -2916.10, -3317.25, 0.000, 0.000, 0.000, 14:27:18.877
192, -2875.48, -2660.76, -2910.75, -3312.56, 0.000, 0.000, 0.000, 14:27:18.877
193, -2861.86, -2654.59, -2899.18, -3295.78, 0.000, 0.000, 0.000, 14:27:18.894
194, -2920.10, -2713.59, -2944.13, -3343.22, 0.000, 0.000, 0.000, 14:27:18.895
195, -2890.42, -2685.89, -2916.62, -3315.14, 0.000, 0.000, 0.000, 14:27:18.936
196, -2886.02, -2678.82, -2913.30, -3314.86, 0.000, 0.000, 0.000, 14:27:18.936
197, -2887.31, -2684.87, -2915.06, -3321.71, 0.000, 0.000, 0.000, 14:27:18.937
198, -2861.19, -2658.60, -2890.33, -3292.61, 0.000, 0.000, 0.000, 14:27:18.938
199, -2858.63, -2656.13, -2890.94, -3298.71, 0.000, 0.000, 0.000, 14:27:18.938
200, -2885.85, -2694.48, -2912.68, -3324.50, 0.000, 0.000, 0.000, 14:27:18.938
0, -2879.67, -2681.59, -2898.24, -3322.84, 0.000, 0.000, 0.000, 14:27:18.948
1, -2882.32, -2679.17, -2900.10, -3307.78, 0.000, 0.000, 0.000, 14:27:18.953
2, -2917.33, -2714.44, -2929.76, -3332.76, 0.000, 0.000, 0.000, 14:27:18.953
3, -2903.22, -2704.73, -2921.95, -3326.26, 0.000, 0.000, 0.000, 14:27:18.953
4, -2885.04, -2691.75, -2908.85, -3311.44, 0.000, 0.000, 0.000, 14:27:18.953
5, -2939.21, -2745.10, -2952.74, -3355.90, 0.000, 0.000, 0.000, 14:27:18.959
6, -2931.05, -2737.87, -2963.60, -3364.02, 0.000, 0.000, 0.000, 14:27:18.960
7, -2906.51, -2700.63, -2931.49, -3341.24, 0.000, 0.000, 0.000, 14:27:18.961
8, -2921.30, -2722.21, -2942.57, -3353.44, 0.000, 0.000, 0.000, 14:27:18.962
9, -2911.75, -2700.60, -2919.66, -3338.08, 0.000, 0.000, 0.000, 14:27:18.995
10, -2884.41, -2681.27, -2918.57, -3323.81, 0.000, 0.000, 0.000, 14:27:18.995
11, -2895.83, -2700.25, -2928.15, -3334.17, 0.000, 0.000, 0.000, 14:27:18.996
12, -2896.01, -2699.97, -2923.23, -3320.87, 0.000, 0.000, 0.000, 14:27:18.996
13, -2880.47, -2681.34, -2906.70, -3310.58, 0.000, 0.000, 0.000, 14:27:19.010
14, -2905.31, -2709.99, -2929.61, -3343.65, 0.000, 0.000, 0.000, 14:27:19.011
15, -2896.82, -2698.25, -2918.07, -3332.77, 0.000, 0.000, 0.000, 14:27:19.011
16, -2878.70, -2682.47, -2914.81, -3322.27, 0.000, 0.000, 0.000, 14:27:19.012
17, -2902.30, -2703.15, -2925.72, -3335.69, 0.000, 0.000, 0.000, 14:27:19.037
18, -2885.64, -2684.47, -2927.34, -3321.23, 0.000, 0.000, 0.000, 14:27:19.037
19, -2885.55, -2689.63, -2922.31, -3323.19, 0.000, 0.000, 0.000, 14:27:19.038
20, -2928.29, -2732.76, -2952.41, -3353.47, 0.000, 0.000, 0.000, 14:27:19.038
21, -2915.50, -2723.99, -2941.72, -3348.31, 0.000, 0.000, 0.000, 14:27:19.039
22, -2889.02, -2698.22, -2909.90, -3329.30, 0.000, 0.000, 0.000, 14:27:19.039
23, -2911.12, -2720.51, -2936.48, -3341.45, 0.000, 0.000, 0.000, 14:27:19.039
24, -2895.53, -2701.91, -2913.43, -3329.22, 0.000, 0.000, 0.000, 14:27:19.040
25, -2874.43, -2682.05, -2896.84, -3311.26, 0.000, 0.000, 0.000, 14:27:19.051
26, -2906.98, -2718.92, -2927.49, -3332.95, 0.000, 0.000, 0.000, 14:27:19.052
27, -2917.24, -2723.75, -2938.87, -3347.64, 0.000, 0.000, 0.000, 14:27:19.078
28, -2892.92, -2703.15, -2918.36, -3329.97, 0.000, 0.000, 0.000, 14:27:19.078
29, -2896.00, -2707.48, -2923.74, -3337.62, 0.000, 0.000, 0.000, 14:27:19.079
30, -2886.78, -2694.42, -2916.54, -3327.32, 0.000, 0.000, 0.000, 14:27:19.081
31, -2884.98, -2685.20, -2916.11, -3321.77, 0.000, 0.000, 0.000, 14:27:19.082
32, -2907.02, -2714.42, -2933.61, -3333.20, 0.000, 0.000, 0.000, 14:27:19.082
33, -2892.86, -2686.44, -2923.33, -3311.14, 0.000, 0.000, 0.000, 14:27:19.136
34, -2871.17, -2665.54, -2901.69, -3298.94, 0.000, 0.000, 0.000, 14:27:19.137
35, -2882.48, -2682.57, -2911.68, -3309.40, 0.000, 0.000, 0.000, 14:27:19.138
36, -2863.05, -2671.03, -2902.26, -3303.67, 0.000, 0.000, 0.000, 14:27:19.138
37, -2866.06, -2668.47, -2899.53, -3303.54, 0.000, 0.000, 0.000, 14:27:19.139
38, -2899.02, -2695.47, -2923.33, -3328.12, 0.000, 0.000, 0.000, 14:27:19.139
39, -2892.78, -2690.92, -2914.06, -3326.40, 0.000, 0.000, 0.000, 14:27:19.142
40, -2878.33, -2677.60, -2912.93, -3312.07, 0.000, 0.000, 0.000, 14:27:19.142
41, -2875.45, -2681.59, -2904.09, -3307.73, 0.000, 0.000, 0.000, 14:27:19.158
42, -2866.75, -2670.36, -2904.23, -3306.72, 0.000, 0.000, 0.000, 14:27:19.159
43, -2863.50, -2666.57, -2908.10, -3311.46, 0.000, 0.000, 0.000, 14:27:19.160
44, -2881.27, -2687.87, -2913.00, -3323.25, 0.000, 0.000, 0.000, 14:27:19.160
45, -2867.91, -2673.26, -2907.74, -3314.91, 0.000, 0.000, 0.000, 14:27:19.161
46, -2870.86, -2665.67, -2894.72, -3307.40, 0.000, 0.000, 0.000, 14:27:19.161
47, -2913.63, -2713.20, -2951.39, -3342.87, 0.000, 0.000, 0.000, 14:27:19.162
48, -2896.24, -2697.72, -2937.79, -3331.19, 0.000, 0.000, 0.000, 14:27:19.162
49, -2879.29, -2673.73, -2914.45, -3317.18, 0.000, 0.000, 0.000, 14:27:19.172
50, -2913.06, -2715.78, -2939.43, -3348.66, 0.000, 0.000, 0.000, 14:27:19.192
51, -2907.85, -2709.78, -2941.08, -3341.08, 0.000, 0.000, 0.000, 14:27:19.194
52, -2886.99, -2682.94, -2914.56, -3311.69, 0.000, 0.000, 0.000, 14:27:19.195
53, -2893.99, -2693.58, -2920.99, -3323.07, 0.000, 0.000, 0.000, 14:27:19.196
54, -2868.60, -2663.93, -2904.19, -3308.00, 0.000, 0.000, 0.000, 14:27:19.203
55, -2864.47, -2662.97, -2898.38, -3306.49, 0.000, 0.000, 0.000, 14:27:19.266
56, -2894.48, -2692.40, -2915.54, -3322.15, 0.000, 0.000, 0.000, 14:27:19.269
57, -2863.69, -2665.52, -2892.39, -3304.76, 0.000, 0.000, 0.000, 14:27:19.272
58, -2858.78, -2664.66, -2888.21, -3293.88, 0.000, 0.000, 0.000, 14:27:19.275
59, -2880.87, -2682.19, -2901.73, -3311.06, 0.000, 0.000, 0.000, 14:27:19.298
60, -2873.17, -2669.92, -2910.92, -3312.67, 0.000, 0.000, 0.000, 14:27:19.299
61, -2878.08, -2676.00, -2904.89, -3315.22, 0.000, 0.000, 0.000, 14:27:19.299
62, -2903.38, -2704.45, -2927.81, -3336.68, 0.000, 0.000, 0.000, 14:27:19.300
63, -2896.07, -2695.11, -2923.90, -3327.79, 0.000, 0.000, 0.000, 14:27:19.300
64, -2889.97, -2675.87, -2916.41, -3312.37, 0.000, 0.000, 0.000, 14:27:19.301
65, -2892.19, -2688.50, -2920.96, -3314.73, 0.000, 0.000, 0.000, 14:27:19.328
66, -2866.48, -2674.12, -2908.67, -3307.86, 0.000, 0.000, 0.000, 14:27:19.329
67, -2883.90, -2683.42, -2923.35, -3325.19, 0.000, 0.000, 0.000, 14:27:19.331
68, -2920.09, -2710.27, -2943.21, -3345.50, 0.000, 0.000, 0.000, 14:27:19.331
69, -2902.73, -2697.18, -2926.75, -3336.26, 0.000, 0.000, 0.000, 14:27:19.332
70, -2885.51, -2682.89, -2910.23, -3323.92, 0.000, 0.000, 0.000, 14:27:19.332
71, -2898.04, -2690.61, -2915.41, -3325.43, 0.000, 0.000, 0.000, 14:27:19.335
72, -2890.50, -2675.77, -2907.17, -3310.08, 0.000, 0.000, 0.000, 14:27:19.335
73, -2871.44, -2661.22, -2889.87, -3296.39, 0.000, 0.000, 0.000, 14:27:19.336
74, -2907.57, -2706.53, -2929.88, -3332.66, 0.000, 0.000, 0.000, 14:27:19.336
75, -2889.90, -2681.19, -2914.26, -3323.41, 0.000, 0.000, 0.000, 14:27:19.337
76, -2871.33, -2682.32, -2896.23, -3305.32, 0.000, 0.000, 0.000, 14:27:19.337
77, -2890.09, -2691.82, -2911.95, -3318.69, 0.000, 0.000, 0.000, 14:27:19.338
78, -2885.33, -2684.16, -2910.94, -3319.32, 0.000, 0.000, 0.000, 14:27:19.338
79, -2894.85, -2705.57, -2920.36, -3333.06, 0.000, 0.000, 0.000, 14:27:19.340
80, -2912.29, -2716.28, -2946.47, -3335.64, 0.000, 0.000, 0.000, 14:27:19.341
81, -2912.86, -2702.82, -2941.24, -3335.72, 0.000, 0.000, 0.000, 14:27:19.342
82, -2887.25, -2689.44, -2921.09, -3322.05, 0.000, 0.000, 0.000, 14:27:19.343
83, -2893.26, -2705.69, -2929.87, -3333.28, 0.000, 0.000, 0.000, 14:27:19.351
84, -2897.15, -2698.37, -2932.10, -3330.04, 0.000, 0.000, 0.000, 14:27:19.352
85, -2876.83, -2679.25, -2908.29, -3308.37, 0.000, 0.000, 0.000, 14:27:19.353
86, -2907.69, -2724.89, -2939.85, -3350.47, 0.000, 0.000, 0.000, 14:27:19.353
87, -2896.68, -2691.67, -2931.34, -3324.07, 0.000, 0.000, 0.000, 14:27:19.367
88, -2881.40, -2680.08, -2914.03, -3312.00, 0.000, 0.000, 0.000, 14:27:19.368
89, -2908.17, -2709.97, -2933.77, -3340.47, 0.000, 0.000, 0.000, 14:27:19.368
90, -2893.85, -2684.73, -2925.26, -3316.76, 0.000, 0.000, 0.000, 14:27:19.369
91, -2877.22, -2683.60, -2912.33, -3332.76, 0.000, 0.000, 0.000, 14:27:19.417
92, -2892.35, -2706.63, -2923.29, -3335.04, 0.000, 0.000, 0.000, 14:27:19.418
93, -2890.94, -2688.14, -2911.28, -3313.08, 0.000, 0.000, 0.000, 14:27:19.418
94, -2907.56, -2695.16, -2914.86, -3322.43, 0.000, 0.000, 0.000, 14:27:19.419
95, -2910.24, -2700.16, -2932.26, -3316.80, 0.000, 0.000, 0.000, 14:27:19.423
96, -2881.40, -2683.44, -2908.62, -3322.10, 0.000, 0.000, 0.000, 14:27:19.423
97, -2862.81, -2671.33, -2893.92, -3309.98, 0.000, 0.000, 0.000, 14:27:19.424
98, -2854.78, -2685.87, -2882.12, -3327.04, 0.000, 0.000, 0.000, 14:27:19.424
99, -2879.08, -2662.61, -2917.28, -3292.91, 0.000, 0.000, 0.000, 14:27:19.426
100, -2889.85, -2694.77, -2907.65, -3342.60, 0.000, 0.000, 0.000, 14:27:19.427
101, -2828.01, -2666.38, -2855.41, -3295.89, 0.000, 0.000, 0.000, 14:27:19.427
102, -2892.94, -2691.06, -2919.39, -3331.26, 0.000, 0.000, 0.000, 14:27:19.427
103, -2891.07, -2675.75, -2888.06, -3307.78, 0.000, 0.000, 0.000, 14:27:19.441
104, -2905.25, -2713.41, -2938.88, -3353.78, 0.000, 0.000, 0.000, 14:27:19.442
105, -2905.80, -2684.11, -2942.07, -3325.95, 0.000, 0.000, 0.000, 14:27:19.456
106, -2889.02, -2683.59, -2896.20, -3319.15, 0.000, 0.000, 0.000, 14:27:19.473
107, -2915.11, -2706.04, -2953.88, -3337.34, 0.000, 0.000, 0.000, 14:27:19.474
108, -2897.84, -2706.12, -2934.91, -3338.67, 0.000, 0.000, 0.000, 14:27:19.474
109, -2885.61, -2696.72, -2913.00, -3322.73, 0.000, 0.000, 0.000, 14:27:19.486
110, -2897.57, -2715.75, -2938.60, -3337.33, 0.000, 0.000, 0.000, 14:27:19.487
111, -2961.76, -2718.75, -2986.09, -3348.61, 0.000, 0.000, 0.000, 14:27:19.487
112, -2915.23, -2694.27, -2933.41, -3332.05, 0.000, 0.000, 0.000, 14:27:19.488
113, -2905.89, -2692.69, -2932.63, -3330.59, 0.000, 0.000, 0.000, 14:27:19.488
114, -2884.40, -2685.69, -2925.00, -3322.31, 0.000, 0.000, 0.000, 14:27:19.489
115, -2883.31, -2671.98, -2922.02, -3308.54, 0.000, 0.000, 0.000, 14:27:19.502
116, -2925.15, -2720.37, -2949.70, -3340.25, 0.000, 0.000, 0.000, 14:27:19.502
117, -2904.98, -2704.78, -2930.91, -3323.11, 0.000, 0.000, 0.000, 14:27:19.539
118, -2895.29, -2689.70, -2915.19, -3329.20, 0.000, 0.000, 0.000, 14:27:19.539
119, -2905.32, -2705.88, -2931.35, -3337.80, 0.000, 0.000, 0.000, 14:27:19.540
120, -2890.65, -2694.03, -2922.97, -3334.76, 0.000, 0.000, 0.000, 14:27:19.541
121, -2888.35, -2690.50, -2917.10, -3330.73, 0.000, 0.000, 0.000, 14:27:19.556
122, -2908.24, -2710.05, -2938.37, -3341.37, 0.000, 0.000, 0.000, 14:27:19.556
123, -2893.81, -2698.88, -2924.29, -3333.42, 0.000, 0.000, 0.000, 14:27:19.559
124, -2890.92, -2689.57, -2924.40, -3326.22, 0.000, 0.000, 0.000, 14:27:19.559
125, -2913.70, -2715.28, -2946.45, -3349.03, 0.000, 0.000, 0.000, 14:27:19.560
126, -2880.07, -2682.41, -2912.88, -3320.49, 0.000, 0.000, 0.000, 14:27:19.560
127, -2877.46, -2678.74, -2913.39, -3329.82, 0.000, 0.000, 0.000, 14:27:19.561
128, -2904.96, -2702.51, -2927.97, -3337.77, 0.000, 0.000, 0.000, 14:27:19.561
129, -2885.73, -2691.76, -2910.75, -3323.65, 0.000, 0.000, 0.000, 14:27:19.617
130, -2877.53, -2694.22, -2904.91, -3320.64, 0.000, 0.000, 0.000, 14:27:19.617
131, -2906.92, -2715.63, -2926.68, -3346.45, 0.000, 0.000, 0.000, 14:27:19.618
132, -2890.26, -2705.88, -2915.53, -3334.97, 0.000, 0.000, 0.000, 14:27:19.618
133, -2888.31, -2702.87, -2919.86, -3325.39, 0.000, 0.000, 0.000, 14:27:19.619
134, -2899.38, -2709.67, -2927.07, -3337.04, 0.000, 0.000, 0.000, 14:27:19.620
135, -2895.62, -2700.05, -2922.29, -3329.78, 0.000, 0.000, 0.000, 14:27:19.622
136, -2895.12, -2696.36, -2924.53, -3325.53, 0.000, 0.000, 0.000, 14:27:19.644
137, -2928.62, -2732.25, -2947.52, -3350.95, 0.000, 0.000, 0.000, 14:27:19.646
138, -2921.14, -2728.78, -2955.87, -3356.41, 0.000, 0.000, 0.000, 14:27:19.646
139, -2908.42, -2714.30, -2938.75, -3343.16, 0.000, 0.000, 0.000, 14:27:19.647
140, -2921.39, -2740.58, -2952.07, -3354.65, 0.000, 0.000, 0.000, 14:27:19.647
141, -2904.62, -2707.13, -2928.85, -3337.16, 0.000, 0.000, 0.000, 14:27:19.647
142, -2887.91, -2692.31, -2913.99, -3324.77, 0.000, 0.000, 0.000, 14:27:19.648
143, -2908.85, -2703.57, -2927.82, -3332.29, 0.000, 0.000, 0.000, 14:27:19.648
144, -2910.12, -2711.50, -2931.88, -3343.74, 0.000, 0.000, 0.000, 14:27:19.648
145, -2897.91, -2688.76, -2923.70, -3320.86, 0.000, 0.000, 0.000, 14:27:19.666
146, -2916.34, -2722.19, -2937.04, -3357.65, 0.000, 0.000, 0.000, 14:27:19.667
147, -2925.02, -2722.58, -2949.65, -3356.12, 0.000, 0.000, 0.000, 14:27:19.667
148, -2903.56, -2703.70, -2935.48, -3349.74, 0.000, 0.000, 0.000, 14:27:19.667
149, -2910.87, -2713.73, -2937.05, -3351.54, 0.000, 0.000, 0.000, 14:27:19.668
150, -2904.61, -2711.35, -2934.98, -3346.09, 0.000, 0.000, 0.000, 14:27:19.668
151, -2898.86, -2695.50, -2933.96, -3340.21, 0.000, 0.000, 0.000, 14:27:19.730
152, -2921.97, -2715.81, -2945.48, -3337.27, 0.000, 0.000, 0.000, 14:27:19.731
153, -2915.44, -2713.61, -2940.30, -3351.53, 0.000, 0.000, 0.000, 14:27:19.732
154, -2890.42, -2692.13, -2916.97, -3319.48, 0.000, 0.000, 0.000, 14:27:19.762
155, -2891.83, -2695.02, -2923.52, -3330.28, 0.000, 0.000, 0.000, 14:27:19.763
156, -2846.95, -2638.16, -2876.30, -3247.92, 0.000, 0.000, 0.000, 14:27:19.763
157, -2902.23, -2712.82, -2935.50, -3336.47, 0.000, 0.000, 0.000, 14:27:19.765
158, -2882.49, -2680.60, -2921.59, -3303.35, 0.000, 0.000, 0.000, 14:27:19.766
159, -2919.08, -2725.40, -2948.27, -3362.79, 0.000, 0.000, 0.000, 14:27:19.767
160, -2885.52, -2695.50, -2922.03, -3331.13, 0.000, 0.000, 0.000, 14:27:19.793
161, -2946.17, -2761.21, -2973.98, -3383.17, 0.000, 0.000, 0.000, 14:27:19.794
162, -2889.85, -2701.56, -2922.49, -3309.02, 0.000, 0.000, 0.000, 14:27:19.795
163, -2875.39, -2679.58, -2923.77, -3309.95, 0.000, 0.000, 0.000, 14:27:19.798
164, -2918.71, -2724.90, -2945.76, -3351.36, 0.000, 0.000, 0.000, 14:27:19.798
165, -2869.80, -2666.72, -2901.17, -3303.42, 0.000, 0.000, 0.000, 14:27:19.799
166, -2874.07, -2670.54, -2906.14, -3309.08, 0.000, 0.000, 0.000, 14:27:19.799
167, -2916.90, -2706.54, -2937.72, -3349.19, 0.000, 0.000, 0.000, 14:27:19.800
168, -2860.48, -2649.96, -2898.25, -3263.23, 0.000, 0.000, 0.000, 14:27:19.811
169, -2893.72, -2724.28, -2935.38, -3368.61, 0.000, 0.000, 0.000, 14:27:19.813
170, -2914.18, -2687.18, -2945.58, -3302.92, 0.000, 0.000, 0.000, 14:27:19.814
171, -2875.58, -2649.60, -2907.48, -3291.97, 0.000, 0.000, 0.000, 14:27:19.814
172, -2905.63, -2721.04, -2926.80, -3361.70, 0.000, 0.000, 0.000, 14:27:19.815
173, -2908.71, -2707.40, -2925.14, -3304.00, 0.000, 0.000, 0.000, 14:27:19.816
174, -2886.87, -2725.24, -2932.80, -3341.74, 0.000, 0.000, 0.000, 14:27:19.816
175, -2891.98, -2703.07, -2907.71, -3336.47, 0.000, 0.000, 0.000, 14:27:19.817
176, -2872.70, -2687.94, -2896.90, -3308.87, 0.000, 0.000, 0.000, 14:27:19.879
177, -2931.55, -2716.97, -2958.19, -3344.91, 0.000, 0.000, 0.000, 14:27:19.880
178, -2911.17, -2683.96, -2929.14, -3323.27, 0.000, 0.000, 0.000, 14:27:19.880
179, -2931.95, -2743.77, -2956.62, -3348.28, 0.000, 0.000, 0.000, 14:27:19.880
180, -2902.24, -2724.00, -2945.51, -3345.68, 0.000, 0.000, 0.000, 14:27:19.880
181, -2919.67, -2703.33, -2942.73, -3340.48, 0.000, 0.000, 0.000, 14:27:19.929
182, -2942.10, -2748.34, -2968.45, -3372.85, 0.000, 0.000, 0.000, 14:27:19.936
183, -2906.64, -2710.42, -2931.26, -3337.27, 0.000, 0.000, 0.000, 14:27:19.938
184, -2916.26, -2705.85, -2942.23, -3340.35, 0.000, 0.000, 0.000, 14:27:19.938
185, -2917.34, -2701.39, -2932.61, -3303.94, 0.000, 0.000, 0.000, 14:27:19.939
186, -2912.50, -2697.83, -2941.34, -3344.61, 0.000, 0.000, 0.000, 14:27:19.940
187, -2892.04, -2718.98, -2934.29, -3367.20, 0.000, 0.000, 0.000, 14:27:19.942
188, -2907.81, -2714.46, -2937.85, -3359.18, 0.000, 0.000, 0.000, 14:27:19.943
189, -2908.92, -2706.91, -2933.06, -3331.35, 0.000, 0.000, 0.000, 14:27:19.974
190, -2869.59, -2692.14, -2908.66, -3343.54, 0.000, 0.000, 0.000, 14:27:19.974
191, -2918.53, -2712.57, -2945.21, -3352.90, 0.000, 0.000, 0.000, 14:27:19.975
192, -2894.45, -2700.86, -2936.04, -3335.32, 0.000, 0.000, 0.000, 14:27:19.975
193, -2889.91, -2706.72, -2918.15, -3354.05, 0.000, 0.000, 0.000, 14:27:19.976
194, -2946.06, -2734.06, -2967.04, -3356.65, 0.000, 0.000, 0.000, 14:27:19.977
195, -2912.76, -2705.13, -2943.69, -3337.60, 0.000, 0.000, 0.000, 14:27:20.071
196, -2917.25, -2705.52, -2939.88, -3336.60, 0.000, 0.000, 0.000, 14:27:20.072
197, -2898.65, -2692.97, -2928.48, -3334.02, 0.000, 0.000, 0.000, 14:27:20.072
198, -2892.23, -2685.89, -2921.88, -3327.93, 0.000, 0.000, 0.000, 14:27:20.073
199, -2875.94, -2689.18, -2913.25, -3317.49, 0.000, 0.000, 0.000, 14:27:20.073
200, -2899.37, -2708.88, -2936.50, -3334.95, 0.000, 0.000, 0.000, 14:27:20.074
0, -2912.89, -2711.44, -2943.04, -3342.63, 0.000, 0.000, 0.000, 14:27:20.074
1, -2907.56, -2706.69, -2935.55, -3342.97, 0.000, 0.000, 0.000, 14:27:20.075
2, -2946.63, -2753.95, -2964.24, -3370.43, 0.000, 0.000, 0.000, 14:27:20.075
3, -2930.68, -2733.08, -2958.06, -3350.01, 0.000, 0.000, 0.000, 14:27:20.076
4, -2900.26, -2708.77, -2943.21, -3346.45, 0.000, 0.000, 0.000, 14:27:20.076
5, -2890.33, -2694.85, -2916.23, -3331.77, 0.000, 0.000, 0.000, 14:27:20.097
6, -2886.69, -2695.06, -2924.83, -3342.03, 0.000, 0.000, 0.000, 14:27:20.097
7, -2875.48, -2675.21, -2911.33, -3306.60, 0.000, 0.000, 0.000, 14:27:20.099
8, -2934.05, -2743.45, -2960.57, -3373.89, 0.000, 0.000, 0.000, 14:27:20.099
9, -2895.94, -2691.36, -2934.50, -3320.93, 0.000, 0.000, 0.000, 14:27:20.100
10, -2912.37, -2712.16, -2936.28, -3332.89, 0.000, 0.000, 0.000, 14:27:20.125
11, -2892.33, -2702.32, -2921.50, -3332.77, 0.000, 0.000, 0.000, 14:27:20.128
12, -2895.19, -2687.52, -2921.72, -3323.08, 0.000, 0.000, 0.000, 14:27:20.128
13, -2878.08, -2684.66, -2917.55, -3325.73, 0.000, 0.000, 0.000, 14:27:20.129
14, -2919.12, -2712.33, -2939.96, -3333.33, 0.000, 0.000, 0.000, 14:27:20.129
15, -2915.34, -2710.40, -2944.11, -3340.11, 0.000, 0.000, 0.000, 14:27:20.130
16, -2892.60, -2689.83, -2905.71, -3330.35, 0.000, 0.000, 0.000, 14:27:20.130
17, -2906.41, -2701.40, -2933.86, -3333.37, 0.000, 0.000, 0.000, 14:27:20.131
18, -2909.23, -2701.59, -2919.14, -3345.52, 0.000, 0.000, 0.000, 14:27:20.132
19, -2895.57, -2682.07, -2931.73, -3322.03, 0.000, 0.000, 0.000, 14:27:20.132
20, -2894.38, -2693.79, -2916.71, -3327.15, 0.000, 0.000, 0.000, 14:27:20.133
21, -2898.56, -2685.43, -2921.55, -3317.79, 0.000, 0.000, 0.000, 14:27:20.133
22, -2900.85, -2691.25, -2925.20, -3323.37, 0.000, 0.000, 0.000, 14:27:20.134
23, -2928.01, -2712.56, -2945.01, -3329.61, 0.000, 0.000, 0.000, 14:27:20.134
24, -2904.41, -2685.15, -2913.02, -3313.96, 0.000, 0.000, 0.000, 14:27:20.135
25, -2889.60, -2695.11, -2905.39, -3335.88, 0.000, 0.000, 0.000, 14:27:20.135
26, -2919.23, -2718.52, -2937.89, -3345.56, 0.000, 0.000, 0.000, 14:27:20.136
27, -2867.54, -2679.68, -2911.36, -3329.05, 0.000, 0.000, 0.000, 14:27:20.136
28, -2861.38, -2652.38, -2906.49, -3301.95, 0.000, 0.000, 0.000, 14:27:20.137
29, -2854.07, -2649.78, -2872.18, -3288.71, 0.000, 0.000, 0.000, 14:27:20.137
30, -2892.00, -2672.84, -2927.92, -3317.72, 0.000, 0.000, 0.000, 14:27:20.138
31, -2864.82, -2658.52, -2904.95, -3307.20, 0.000, 0.000, 0.000, 14:27:20.138
32, -2909.54, -2691.91, -2935.59, -3333.94, 0.000, 0.000, 0.000, 14:27:20.139
33, -2878.54, -2675.03, -2915.78, -3326.31, 0.000, 0.000, 0.000, 14:27:20.139
34, -2882.87, -2672.56, -2907.33, -3317.35, 0.000, 0.000, 0.000, 14:27:20.140
35, -2879.35, -2671.08, -2907.19, -3313.96, 0.000, 0.000, 0.000, 14:27:20.141
36, -2892.16, -2686.16, -2914.41, -3332.88, 0.000, 0.000, 0.000, 14:27:20.141
37, -2881.58, -2674.42, -2900.88, -3306.49, 0.000, 0.000, 0.000, 14:27:20.160
38, -2893.24, -2690.64, -2932.59, -3320.32, 0.000, 0.000, 0.000, 14:27:20.161
39, -2870.64, -2680.30, -2925.63, -3332.68, 0.000, 0.000, 0.000, 14:27:20.162
40, -2874.56, -2671.26, -2894.60, -3315.86, 0.000, 0.000, 0.000, 14:27:20.162
41, -2890.14, -2695.96, -2930.69, -3332.35, 0.000, 0.000, 0.000, 14:27:20.163
42, -2879.73, -2681.49, -2918.95, -3325.86, 0.000, 0.000, 0.000, 14:27:20.163
43, -2855.47, -2670.53, -2878.37, -3305.60, 0.000, 0.000, 0.000, 14:27:20.203
44, -2880.23, -2691.18, -2928.91, -3321.68, 0.000, 0.000, 0.000, 14:27:20.206
45, -2854.98, -2671.74, -2904.36, -3311.34, 0.000, 0.000, 0.000, 14:27:20.207
46, -2867.46, -2662.52, -2896.08, -3303.09, 0.000, 0.000, 0.000, 14:27:20.208
47, -2883.33, -2687.58, -2928.08, -3322.44, 0.000, 0.000, 0.000, 14:27:20.209
48, -2887.47, -2685.84, -2906.94, -3301.65, 0.000, 0.000, 0.000, 14:27:20.210
49, -2875.26, -2677.03, -2912.77, -3304.53, 0.000, 0.000, 0.000, 14:27:20.210
50, -2905.38, -2713.95, -2932.17, -3342.85, 0.000, 0.000, 0.000, 14:27:20.211
51, -2859.51, -2675.76, -2901.37, -3311.65, 0.000, 0.000, 0.000, 14:27:20.211
52, -2866.61, -2673.36, -2905.65, -3314.22, 0.000, 0.000, 0.000, 14:27:20.212
53, -2885.09, -2687.16, -2922.74, -3321.82, 0.000, 0.000, 0.000, 14:27:20.212
54, -2864.85, -2688.42, -2898.92, -3329.15, 0.000, 0.000, 0.000, 14:27:20.213
55, -2885.47, -2692.86, -2922.89, -3316.78, 0.000, 0.000, 0.000, 14:27:20.272
56, -2912.97, -2732.50, -2946.72, -3354.41, 0.000, 0.000, 0.000, 14:27:20.272
57, -2917.14, -2724.16, -2947.74, -3351.79, 0.000, 0.000, 0.000, 14:27:20.273
58, -2895.19, -2707.04, -2931.05, -3328.74, 0.000, 0.000, 0.000, 14:27:20.273
59, -2930.88, -2724.63, -2944.23, -3342.75, 0.000, 0.000, 0.000, 14:27:20.274
60, -2901.81, -2705.78, -2920.08, -3327.33, 0.000, 0.000, 0.000, 14:27:20.274
61, -2896.19, -2703.85, -2912.90, -3331.74, 0.000, 0.000, 0.000, 14:27:20.277
62, -2971.40, -2774.85, -2988.30, -3375.27, 0.000, 0.000, 0.000, 14:27:20.278
63, -2948.78, -2740.64, -2966.19, -3353.95, 0.000, 0.000, 0.000, 14:27:20.279
64, -2930.69, -2719.49, -2954.22, -3347.34, 0.000, 0.000, 0.000, 14:27:20.279
65, -2936.23, -2729.70, -2964.76, -3356.51, 0.000, 0.000, 0.000, 14:27:20.280
66, -2919.82, -2719.27, -2948.39, -3344.98, 0.000, 0.000, 0.000, 14:27:20.280
67, -2913.73, -2721.66, -2937.52, -3343.00, 0.000, 0.000, 0.000, 14:27:20.281
68, -2923.09, -2714.37, -2932.47, -3336.36, 0.000, 0.000, 0.000, 14:27:20.281
69, -2914.83, -2717.71, -2933.94, -3337.39, 0.000, 0.000, 0.000, 14:27:20.335
70, -2919.53, -2714.69, -2935.58, -3344.48, 0.000, 0.000, 0.000, 14:27:20.335
71, -2960.24, -2770.94, -2984.16, -3384.13, 0.000, 0.000, 0.000, 14:27:20.336
72, -2930.97, -2742.95, -2955.92, -3368.23, 0.000, 0.000, 0.000, 14:27:20.337
73, -2924.41, -2718.07, -2935.49, -3349.04, 0.000, 0.000, 0.000, 14:27:20.343
74, -2928.80, -2742.70, -2951.80, -3360.88, 0.000, 0.000, 0.000, 14:27:20.344
75, -2911.04, -2705.73, -2936.40, -3332.61, 0.000, 0.000, 0.000, 14:27:20.344
76, -2902.45, -2709.28, -2924.06, -3344.93, 0.000, 0.000, 0.000, 14:27:20.347
77, -2900.54, -2710.27, -2922.51, -3341.14, 0.000, 0.000, 0.000, 14:27:20.350
78, -2891.11, -2699.75, -2914.89, -3329.17, 0.000, 0.000, 0.000, 14:27:20.350
79, -2865.94, -2675.87, -2897.79, -3303.24, 0.000, 0.000, 0.000, 14:27:20.351
80, -2884.44, -2700.28, -2902.61, -3322.10, 0.000, 0.000, 0.000, 14:27:20.351
81, -2880.35, -2686.99, -2909.78, -3314.00, 0.000, 0.000, 0.000, 14:27:20.375
82, -2893.71, -2694.44, -2923.02, -3323.24, 0.000, 0.000, 0.000, 14:27:20.375
83, -2944.74, -2729.43, -2957.32, -3343.41, 0.000, 0.000, 0.000, 14:27:20.376
84, -2927.04, -2723.90, -2951.69, -3346.85, 0.000, 0.000, 0.000, 14:27:20.376
85, -2905.34, -2710.41, -2932.23, -3336.78, 0.000, 0.000, 0.000, 14:27:20.377
86, -2919.17, -2725.31, -2945.64, -3352.46, 0.000, 0.000, 0.000, 14:27:20.377
87, -2898.32, -2704.37, -2932.46, -3335.88, 0.000, 0.000, 0.000, 14:27:20.378
88, -2878.41, -2679.27, -2912.84, -3321.35, 0.000, 0.000, 0.000, 14:27:20.379
89, -2899.88, -2707.64, -2946.01, -3335.36, 0.000, 0.000, 0.000, 14:27:20.379
90, -2897.26, -2681.60, -2930.15, -3321.28, 0.000, 0.000, 0.000, 14:27:20.379
91, -2882.26, -2663.19, -2911.83, -3297.88, 0.000, 0.000, 0.000, 14:27:20.485
92, -2895.75, -2681.22, -2916.77, -3308.57, 0.000, 0.000, 0.000, 14:27:20.486
93, -2875.69, -2671.39, -2898.71, -3302.79, 0.000, 0.000, 0.000, 14:27:20.487
94, -2881.60, -2683.08, -2900.19, -3305.62, 0.000, 0.000, 0.000, 14:27:20.487
95, -2891.53, -2693.40, -2909.50, -3313.20, 0.000, 0.000, 0.000, 14:27:20.488
96, -2880.80, -2666.30, -2904.85, -3305.14, 0.000, 0.000, 0.000, 14:27:20.488
97, -2865.88, -2664.37, -2901.51, -3302.88, 0.000, 0.000, 0.000, 14:27:20.776
98, -2910.50, -2703.69, -2933.32, -3332.32, 0.000, 0.000, 0.000, 14:27:20.777
99, -2889.10, -2691.74, -2914.92, -3315.42, 0.000, 0.000, 0.000, 14:27:20.777
100, -2870.97, -2674.16, -2882.19, -3300.07, 0.000, 0.000, 0.000, 14:27:20.778
101, -2882.57, -2691.39, -2910.24, -3306.10, 0.000, 0.000, 0.000, 14:27:20.779
102, -2861.17, -2675.76, -2894.00, -3304.91, 0.000, 0.000, 0.000, 14:27:20.779
103, -2867.17, -2671.20, -2895.02, -3304.36, 0.000, 0.000, 0.000, 14:27:21.455
104, -2888.65, -2698.96, -2904.57, -3321.95, 0.000, 0.000, 0.000, 14:27:21.456
105, -2887.00, -2687.89, -2921.85, -3327.33, 0.000, 0.000, 0.000, 14:27:21.457
106, -2887.74, -2680.86, -2932.10, -3316.74, 0.000, 0.000, 0.000, 14:27:21.457
107, -2875.65, -2694.54, -2909.55, -3326.12, 0.000, 0.000, 0.000, 14:27:21.458
108, -2872.64, -2680.12, -2900.12, -3306.11, 0.000, 0.000, 0.000, 14:27:21.458
109, -2877.78, -2682.69, -2904.66, -3311.62, 0.000, 0.000, 0.000, 14:27:21.531
110, -2901.88, -2707.65, -2931.67, -3338.52, 0.000, 0.000, 0.000, 14:27:21.534
111, -2897.24, -2698.10, -2928.15, -3333.93, 0.000, 0.000, 0.000, 14:27:21.565
112, -2875.48, -2673.66, -2904.62, -3311.56, 0.000, 0.000, 0.000, 14:27:21.566
113, -2906.50, -2706.22, -2934.48, -3339.07, 0.000, 0.000, 0.000, 14:27:21.566
114, -2885.86, -2696.90, -2929.41, -3332.48, 0.000, 0.000, 0.000, 14:27:21.566
115, -2897.37, -2682.23, -2917.74, -3318.27, 0.000, 0.000, 0.000, 14:27:21.693
116, -2905.80, -2717.47, -2943.54, -3339.61, 0.000, 0.000, 0.000, 14:27:21.696
117, -2886.53, -2694.09, -2929.52, -3323.47, 0.000, 0.000, 0.000, 14:27:21.699
118, -2876.96, -2678.10, -2917.44, -3319.82, 0.000, 0.000, 0.000, 14:27:21.699
119, -2886.96, -2699.96, -2924.09, -3327.29, 0.000, 0.000, 0.000, 14:27:21.699
120, -2877.63, -2682.31, -2911.41, -3312.64, 0.000, 0.000, 0.000, 14:27:21.699
121, -2896.10, -2688.46, -2919.16, -3322.25, 0.000, 0.000, 0.000, 14:27:21.954
122, -2919.24, -2725.27, -2941.24, -3345.61, 0.000, 0.000, 0.000, 14:27:21.954
123, -2908.30, -2698.53, -2938.97, -3335.18, 0.000, 0.000, 0.000, 14:27:21.955
124, -2903.69, -2694.62, -2936.02, -3332.27, 0.000, 0.000, 0.000, 14:27:21.955
125, -2899.11, -2710.00, -2928.81, -3334.57, 0.000, 0.000, 0.000, 14:27:21.955
126, -2902.26, -2695.91, -2927.05, -3321.61, 0.000, 0.000, 0.000, 14:27:21.956
127, -2891.45, -2697.17, -2927.31, -3318.70, 0.000, 0.000, 0.000, 14:27:21.980
128, -2905.58, -2727.01, -2923.30, -3341.72, 0.000, 0.000, 0.000, 14:27:21.980
129, -2902.70, -2703.16, -2931.09, -3337.30, 0.000, 0.000, 0.000, 14:27:21.982
130, -2875.73, -2695.47, -2915.45, -3322.13, 0.000, 0.000, 0.000, 14:27:21.982
131, -2911.77, -2713.90, -2939.41, -3341.13, 0.000, 0.000, 0.000, 14:27:21.983
132, -2895.06, -2695.60, -2922.57, -3319.53, 0.000, 0.000, 0.000, 14:27:21.983
133, -2890.14, -2694.23, -2917.89, -3316.61, 0.000, 0.000, 0.000, 14:27:22.062
134, -2911.84, -2711.24, -2933.43, -3332.39, 0.000, 0.000, 0.000, 14:27:22.062
135, -2884.63, -2694.18, -2911.10, -3316.49, 0.000, 0.000, 0.000, 14:27:22.080
136, -2888.95, -2684.95, -2921.40, -3314.92, 0.000, 0.000, 0.000, 14:27:22.081
137, -2947.20, -2761.34, -2974.84, -3374.11, 0.000, 0.000, 0.000, 14:27:22.082
138, -2944.86, -2758.45, -2977.35, -3371.42, 0.000, 0.000, 0.000, 14:27:22.082
139, -2911.95, -2721.48, -2938.77, -3340.35, 0.000, 0.000, 0.000, 14:27:22.167
140, -2901.52, -2704.54, -2931.34, -3341.69, 0.000, 0.000, 0.000, 14:27:22.167
141, -2900.94, -2697.60, -2929.17, -3337.58, 0.000, 0.000, 0.000, 14:27:22.168
142, -2890.88, -2688.01, -2915.84, -3329.19, 0.000, 0.000, 0.000, 14:27:22.168
143, -2912.43, -2710.50, -2937.16, -3336.65, 0.000, 0.000, 0.000, 14:27:22.175
144, -2899.20, -2703.19, -2922.12, -3333.76, 0.000, 0.000, 0.000, 14:27:22.175
145, -2892.41, -2688.32, -2920.49, -3325.75, 0.000, 0.000, 0.000, 14:27:22.184
146, -2920.89, -2721.89, -2940.69, -3348.36, 0.000, 0.000, 0.000, 14:27:22.185
147, -2916.08, -2706.44, -2934.74, -3339.05, 0.000, 0.000, 0.000, 14:27:22.186
148, -2907.37, -2695.14, -2929.31, -3327.37, 0.000, 0.000, 0.000, 14:27:22.186
149, -2908.60, -2706.85, -2930.86, -3338.31, 0.000, 0.000, 0.000, 14:27:22.187
150, -2902.60, -2699.73, -2936.82, -3334.40, 0.000, 0.000, 0.000, 14:27:22.187
151, -2891.36, -2688.96, -2922.46, -3321.93, 0.000, 0.000, 0.000, 14:27:22.187
152, -2922.69, -2714.62, -2946.05, -3334.43, 0.000, 0.000, 0.000, 14:27:22.187
153, -2891.30, -2696.32, -2923.49, -3321.05, 0.000, 0.000, 0.000, 14:27:22.188
154, -2901.68, -2700.48, -2925.34, -3329.21, 0.000, 0.000, 0.000, 14:27:22.188
155, -2901.84, -2708.70, -2929.98, -3330.99, 0.000, 0.000, 0.000, 14:27:22.188
156, -2884.07, -2695.19, -2912.89, -3322.77, 0.000, 0.000, 0.000, 14:27:22.189
157, -2894.75, -2694.53, -2921.41, -3325.06, 0.000, 0.000, 0.000, 14:27:22.190
158, -2926.93, -2739.04, -2950.93, -3354.39, 0.000, 0.000, 0.000, 14:27:22.190
159, -2911.65, -2729.28, -2954.35, -3344.24, 0.000, 0.000, 0.000, 14:27:22.193
160, -2892.54, -2694.34, -2921.43, -3322.93, 0.000, 0.000, 0.000, 14:27:22.194
161, -2894.78, -2706.04, -2930.42, -3336.08, 0.000, 0.000, 0.000, 14:27:22.194
162, -2893.60, -2696.07, -2926.58, -3333.86, 0.000, 0.000, 0.000, 14:27:22.194
163, -2901.12, -2706.83, -2929.90, -3327.15, 0.000, 0.000, 0.000, 14:27:22.269
164, -2925.84, -2733.16, -2958.70, -3358.33, 0.000, 0.000, 0.000, 14:27:22.269
165, -2918.52, -2713.95, -2951.66, -3346.31, 0.000, 0.000, 0.000, 14:27:22.270
166, -2892.94, -2703.94, -2934.89, -3331.87, 0.000, 0.000, 0.000, 14:27:22.270
167, -2888.58, -2696.24, -2924.00, -3325.09, 0.000, 0.000, 0.000, 14:27:22.271
168, -2860.23, -2658.64, -2892.46, -3306.57, 0.000, 0.000, 0.000, 14:27:22.271
169, -2870.01, -2670.51, -2909.92, -3310.02, 0.000, 0.000, 0.000, 14:27:22.273
170, -2890.89, -2699.19, -2932.15, -3323.42, 0.000, 0.000, 0.000, 14:27:22.273
171, -2887.31, -2683.63, -2915.82, -3317.35, 0.000, 0.000, 0.000, 14:27:22.273
172, -2874.75, -2669.94, -2907.63, -3314.44, 0.000, 0.000, 0.000, 14:27:22.274
173, -2930.58, -2721.19, -2945.28, -3359.43, 0.000, 0.000, 0.000, 14:27:22.274
174, -2910.23, -2709.16, -2942.34, -3339.83, 0.000, 0.000, 0.000, 14:27:22.275
175, -2894.08, -2686.30, -2924.73, -3322.48, 0.000, 0.000, 0.000, 14:27:22.275
176, -2906.57, -2706.28, -2931.62, -3342.27, 0.000, 0.000, 0.000, 14:27:22.275
177, -2888.82, -2683.42, -2928.80, -3319.87, 0.000, 0.000, 0.000, 14:27:22.276
178, -2896.87, -2687.87, -2928.77, -3323.83, 0.000, 0.000, 0.000, 14:27:22.276
179, -2900.93, -2699.07, -2931.90, -3330.86, 0.000, 0.000, 0.000, 14:27:22.277
180, -2876.62, -2684.33, -2912.69, -3318.84, 0.000, 0.000, 0.000, 14:27:22.277
181, -2889.91, -2683.43, -2916.66, -3321.59, 0.000, 0.000, 0.000, 14:27:22.278
182, -2945.67, -2741.32, -2966.74, -3362.11, 0.000, 0.000, 0.000, 14:27:22.278
183, -2936.41, -2744.81, -2959.86, -3364.60, 0.000, 0.000, 0.000, 14:27:22.278
184, -2904.13, -2708.54, -2939.57, -3340.68, 0.000, 0.000, 0.000, 14:27:22.279
185, -2909.62, -2716.25, -2937.27, -3340.01, 0.000, 0.000, 0.000, 14:27:22.280
186, -2899.10, -2699.65, -2924.88, -3328.64, 0.000, 0.000, 0.000, 14:27:22.284
187, -2874.63, -2684.23, -2911.78, -3321.33, 0.000, 0.000, 0.000, 14:27:22.285
188, -2898.94, -2709.29, -2927.66, -3331.99, 0.000, 0.000, 0.000, 14:27:22.286
189, -2903.13, -2703.96, -2931.89, -3337.55, 0.000, 0.000, 0.000, 14:27:22.286
190, -2895.21, -2690.28, -2926.55, -3328.37, 0.000, 0.000, 0.000, 14:27:22.286
191, -2902.71, -2704.94, -2934.46, -3339.01, 0.000, 0.000, 0.000, 14:27:22.321
192, -2885.22, -2683.46, -2914.98, -3322.45, 0.000, 0.000, 0.000, 14:27:22.321
193, -2887.56, -2683.40, -2917.63, -3323.79, 0.000, 0.000, 0.000, 14:27:22.321
194, -2923.01, -2728.70, -2944.23, -3353.57, 0.000, 0.000, 0.000, 14:27:22.321
195, -2907.89, -2720.26, -2942.04, -3346.54, 0.000, 0.000, 0.000, 14:27:22.322
196, -2900.95, -2694.29, -2927.65, -3323.87, 0.000, 0.000, 0.000, 14:27:22.322
197, -2901.79, -2703.96, -2921.37, -3327.11, 0.000, 0.000, 0.000, 14:27:22.323
198, -2880.87, -2683.17, -2913.60, -3315.74, 0.000, 0.000, 0.000, 14:27:22.323
199, -2878.66, -2683.66, -2903.10, -3307.62, 0.000, 0.000, 0.000, 14:27:22.324
200, -2919.87, -2722.57, -2935.01, -3343.92, 0.000, 0.000, 0.000, 14:27:22.324
0, -2907.46, -2704.90, -2938.68, -3323.48, 0.000, 0.000, 0.000, 14:27:22.324
1, -2887.88, -2699.81, -2925.07, -3323.61, 0.000, 0.000, 0.000, 14:27:22.325
2, -2946.62, -2750.55, -2962.05, -3359.13, 0.000, 0.000, 0.000, 14:27:22.325
3, -2918.17, -2727.92, -2932.66, -3344.28, 0.000, 0.000, 0.000, 14:27:22.326
4, -2896.28, -2709.00, -2923.36, -3337.28, 0.000, 0.000, 0.000, 14:27:22.326
5, -2934.89, -2731.88, -2962.56, -3353.59, 0.000, 0.000, 0.000, 14:27:22.326
6, -2887.72, -2705.69, -2921.23, -3332.88, 0.000, 0.000, 0.000, 14:27:22.326
7, -2914.98, -2701.22, -2945.56, -3333.09, 0.000, 0.000, 0.000, 14:27:22.331
8, -2908.43, -2714.95, -2936.19, -3348.64, 0.000, 0.000, 0.000, 14:27:22.331
9, -2928.18, -2718.91, -2960.74, -3354.37, 0.000, 0.000, 0.000, 14:27:22.331
10, -2901.82, -2697.66, -2928.62, -3331.91, 0.000, 0.000, 0.000, 14:27:22.331
11, -2923.31, -2707.39, -2945.18, -3336.31, 0.000, 0.000, 0.000, 14:27:22.332
12, -2872.29, -2684.32, -2899.30, -3316.71, 0.000, 0.000, 0.000, 14:27:22.332
13, -2878.67, -2695.84, -2905.08, -3323.63, 0.000, 0.000, 0.000, 14:27:22.332
14, -2930.41, -2731.50, -2945.77, -3348.98, 0.000, 0.000, 0.000, 14:27:22.332
15, -2922.43, -2706.56, -2950.22, -3338.34, 0.000, 0.000, 0.000, 14:27:22.333
16, -2893.95, -2686.06, -2910.25, -3307.58, 0.000, 0.000, 0.000, 14:27:22.333
17, -2887.25, -2701.08, -2881.94, -3322.11, 0.000, 0.000, 0.000, 14:27:22.335
18, -2897.98, -2685.43, -2920.37, -3312.54, 0.000, 0.000, 0.000, 14:27:22.336
19, -2853.17, -2658.20, -2902.65, -3295.08, 0.000, 0.000, 0.000, 14:27:22.346
20, -2911.99, -2700.49, -2944.47, -3330.93, 0.000, 0.000, 0.000, 14:27:22.347
21, -2869.93, -2677.77, -2909.61, -3308.19, 0.000, 0.000, 0.000, 14:27:22.354
22, -2919.40, -2690.19, -2933.01, -3320.35, 0.000, 0.000, 0.000, 14:27:22.355
23, -2906.04, -2691.23, -2934.07, -3315.14, 0.000, 0.000, 0.000, 14:27:22.357
24, -2859.21, -2671.74, -2884.15, -3299.23, 0.000, 0.000, 0.000, 14:27:22.357
25, -2860.35, -2666.27, -2891.34, -3312.02, 0.000, 0.000, 0.000, 14:27:22.358
26, -2920.34, -2719.58, -2932.01, -3340.72, 0.000, 0.000, 0.000, 14:27:22.358
27, -2911.81, -2697.65, -2950.72, -3329.23, 0.000, 0.000, 0.000, 14:27:22.368
28, -2896.99, -2688.94, -2933.39, -3323.65, 0.000, 0.000, 0.000, 14:27:22.369
29, -2875.44, -2693.99, -2912.46, -3329.34, 0.000, 0.000, 0.000, 14:27:22.388
30, -2892.52, -2684.76, -2925.59, -3315.64, 0.000, 0.000, 0.000, 14:27:22.388
31, -2860.25, -2677.60, -2884.06, -3299.84, 0.000, 0.000, 0.000, 14:27:22.389
32, -2902.06, -2710.84, -2943.59, -3339.34, 0.000, 0.000, 0.000, 14:27:22.389
33, -2918.21, -2708.11, -2957.27, -3343.60, 0.000, 0.000, 0.000, 14:27:22.393
34, -2893.13, -2693.23, -2901.08, -3324.59, 0.000, 0.000, 0.000, 14:27:22.393
35, -2914.08, -2709.54, -2958.96, -3349.99, 0.000, 0.000, 0.000, 14:27:22.394
36, -2885.77, -2701.89, -2911.95, -3340.10, 0.000, 0.000, 0.000, 14:27:22.395
37, -2900.72, -2707.82, -2938.69, -3337.39, 0.000, 0.000, 0.000, 14:27:22.397
38, -2932.75, -2737.89, -2946.89, -3365.65, 0.000, 0.000, 0.000, 14:27:22.398
39, -2895.86, -2703.63, -2930.18, -3339.92, 0.000, 0.000, 0.000, 14:27:22.399
40, -2899.14, -2703.18, -2931.38, -3348.61, 0.000, 0.000, 0.000, 14:27:22.399
41, -2942.26, -2731.14, -2965.89, -3364.72, 0.000, 0.000, 0.000, 14:27:22.400
42, -2908.11, -2709.23, -2928.90, -3336.20, 0.000, 0.000, 0.000, 14:27:22.400
43, -2903.57, -2698.24, -2921.26, -3331.49, 0.000, 0.000, 0.000, 14:27:22.401
44, -2936.34, -2732.71, -2958.77, -3353.08, 0.000, 0.000, 0.000, 14:27:22.407
45, -2918.56, -2720.98, -2954.98, -3351.54, 0.000, 0.000, 0.000, 14:27:22.415
46, -2907.60, -2692.28, -2919.28, -3324.41, 0.000, 0.000, 0.000, 14:27:22.416
47, -2900.69, -2710.06, -2917.62, -3330.08, 0.000, 0.000, 0.000, 14:27:22.416
48, -2904.12, -2698.48, -2943.45, -3333.17, 0.000, 0.000, 0.000, 14:27:22.416
49, -2863.13, -2676.34, -2904.48, -3319.11, 0.000, 0.000, 0.000, 14:27:22.417
50, -2910.03, -2708.19, -2944.25, -3342.61, 0.000, 0.000, 0.000, 14:27:22.417
51, -2888.70, -2688.57, -2913.34, -3325.29, 0.000, 0.000, 0.000, 14:27:22.418
52, -2888.46, -2680.35, -2926.77, -3324.24, 0.000, 0.000, 0.000, 14:27:22.419
53, -2903.82, -2692.58, -2940.17, -3330.70, 0.000, 0.000, 0.000, 14:27:22.421
54, -2847.15, -2673.51, -2915.06, -3314.69, 0.000, 0.000, 0.000, 14:27:22.422
55, -2900.99, -2677.02, -2916.70, -3310.10, 0.000, 0.000, 0.000, 14:27:22.422
56, -2912.56, -2713.34, -2939.22, -3343.97, 0.000, 0.000, 0.000, 14:27:22.422
57, -2882.01, -2687.88, -2932.42, -3323.99, 0.000, 0.000, 0.000, 14:27:22.423
58, -2882.29, -2676.47, -2918.34, -3315.69, 0.000, 0.000, 0.000, 14:27:22.423
59, -2878.94, -2682.46, -2917.51, -3318.06, 0.000, 0.000, 0.000, 14:27:22.424
60, -2878.93, -2678.31, -2903.82, -3317.42, 0.000, 0.000, 0.000, 14:27:22.424
61, -2870.53, -2674.86, -2896.25, -3313.66, 0.000, 0.000, 0.000, 14:27:22.424
62, -2903.47, -2718.12, -2931.95, -3344.11, 0.000, 0.000, 0.000, 14:27:22.425
63, -2911.12, -2701.28, -2945.55, -3337.96, 0.000, 0.000, 0.000, 14:27:22.426
64, -2883.00, -2690.49, -2921.26, -3335.25, 0.000, 0.000, 0.000, 14:27:22.426
65, -2918.81, -2715.16, -2944.28, -3351.22, 0.000, 0.000, 0.000, 14:27:22.427
66, -2885.54, -2689.77, -2897.67, -3322.45, 0.000, 0.000, 0.000, 14:27:22.427
67, -2867.45, -2676.93, -2909.58, -3305.87, 0.000, 0.000, 0.000, 14:27:22.428
68, -2917.18, -2715.43, -2939.04, -3333.25, 0.000, 0.000, 0.000, 14:27:22.429
69, -2924.46, -2715.59, -2948.52, -3336.54, 0.000, 0.000, 0.000, 14:27:22.431
70, -2888.00, -2690.84, -2927.78, -3327.53, 0.000, 0.000, 0.000, 14:27:22.431
71, -2873.46, -2696.86, -2901.06, -3323.19, 0.000, 0.000, 0.000, 14:27:22.432
72, -2917.14, -2701.85, -2949.18, -3326.08, 0.000, 0.000, 0.000, 14:27:22.432
73, -2892.53, -2693.31, -2922.49, -3324.51, 0.000, 0.000, 0.000, 14:27:22.444
74, -2932.90, -2718.54, -2948.77, -3345.11, 0.000, 0.000, 0.000, 14:27:22.447
75, -2899.20, -2701.28, -2929.68, -3326.65, 0.000, 0.000, 0.000, 14:27:22.447
76, -2884.29, -2691.03, -2919.16, -3330.43, 0.000, 0.000, 0.000, 14:27:22.447
77, -2919.23, -2704.21, -2946.18, -3333.09, 0.000, 0.000, 0.000, 14:27:22.448
78, -2885.52, -2682.53, -2920.80, -3310.48, 0.000, 0.000, 0.000, 14:27:22.448
79, -2874.93, -2675.96, -2895.84, -3304.31, 0.000, 0.000, 0.000, 14:27:22.449
80, -2893.27, -2709.70, -2923.32, -3330.62, 0.000, 0.000, 0.000, 14:27:22.449
81, -2887.17, -2680.60, -2884.98, -3306.97, 0.000, 0.000, 0.000, 14:27:22.459
82, -2874.26, -2660.41, -2915.82, -3298.97, 0.000, 0.000, 0.000, 14:27:22.459
83, -2889.25, -2689.28, -2898.50, -3313.85, 0.000, 0.000, 0.000, 14:27:22.460
84, -2883.71, -2678.68, -2917.60, -3312.82, 0.000, 0.000, 0.000, 14:27:22.460
85, -2861.71, -2661.76, -2890.24, -3299.75, 0.000, 0.000, 0.000, 14:27:22.464
86, -2875.37, -2686.78, -2912.75, -3310.65, 0.000, 0.000, 0.000, 14:27:22.464
87, -2859.54, -2665.00, -2887.27, -3302.34, 0.000, 0.000, 0.000, 14:27:22.481
88, -2859.36, -2651.86, -2896.33, -3297.62, 0.000, 0.000, 0.000, 14:27:22.482
89, -2894.42, -2687.53, -2919.74, -3326.30, 0.000, 0.000, 0.000, 14:27:22.482
90, -2882.29, -2679.74, -2912.22, -3317.84, 0.000, 0.000, 0.000, 14:27:22.482
91, -2880.97, -2686.60, -2921.46, -3318.35, 0.000, 0.000, 0.000, 14:27:22.483
92, -2929.60, -2738.08, -2951.69, -3359.86, 0.000, 0.000, 0.000, 14:27:22.483
93, -2924.09, -2730.36, -2949.74, -3344.85, 0.000, 0.000, 0.000, 14:27:23.516
94, -2874.45, -2678.23, -2911.62, -3305.05, 0.000, 0.000, 0.000, 14:27:23.516
95, -2876.63, -2669.62, -2910.31, -3306.18, 0.000, 0.000, 0.000, 14:27:23.517
96, -2852.89, -2655.91, -2881.84, -3302.44, 0.000, 0.000, 0.000, 14:27:23.517
97, -2846.56, -2645.21, -2890.07, -3300.70, 0.000, 0.000, 0.000, 14:27:23.518
98, -2876.86, -2675.89, -2915.14, -3317.84, 0.000, 0.000, 0.000, 14:27:23.518
99, -2865.20, -2660.29, -2913.97, -3306.05, 0.000, 0.000, 0.000, 14:27:23.519
100, -2845.85, -2650.52, -2868.96, -3300.64, 0.000, 0.000, 0.000, 14:27:23.519
101, -2882.95, -2678.78, -2929.12, -3317.81, 0.000, 0.000, 0.000, 14:27:23.520
102, -2865.41, -2654.88, -2895.50, -3296.88, 0.000, 0.000, 0.000, 14:27:23.520
103, -2847.97, -2652.84, -2879.17, -3297.10, 0.000, 0.000, 0.000, 14:27:23.521
104, -2885.30, -2684.50, -2903.45, -3317.66, 0.000, 0.000, 0.000, 14:27:23.521
105, -2866.76, -2663.93, -2881.69, -3304.96, 0.000, 0.000, 0.000, 14:27:23.522
106, -2885.24, -2665.86, -2912.61, -3292.41, 0.000, 0.000, 0.000, 14:27:23.522
107, -2884.13, -2673.26, -2912.31, -3307.69, 0.000, 0.000, 0.000, 14:27:23.523
108, -2871.36, -2674.34, -2899.09, -3303.37, 0.000, 0.000, 0.000, 14:27:23.524
109, -2858.39, -2661.08, -2884.50, -3292.92, 0.000, 0.000, 0.000, 14:27:23.524
110, -2860.01, -2673.81, -2890.26, -3301.72, 0.000, 0.000, 0.000, 14:27:23.525
111, -2844.09, -2652.83, -2885.50, -3291.89, 0.000, 0.000, 0.000, 14:27:23.525
112, -2855.05, -2648.35, -2888.70, -3282.94, 0.000, 0.000, 0.000, 14:27:23.526
113, -2866.63, -2665.81, -2896.06, -3295.33, 0.000, 0.000, 0.000, 14:27:23.526
114, -2858.17, -2659.18, -2877.82, -3292.46, 0.000, 0.000, 0.000, 14:27:23.527
115, -2886.70, -2664.76, -2911.40, -3304.44, 0.000, 0.000, 0.000, 14:27:23.528
116, -2880.21, -2691.93, -2905.72, -3315.71, 0.000, 0.000, 0.000, 14:27:23.528
117, -2887.35, -2688.66, -2924.28, -3320.98, 0.000, 0.000, 0.000, 14:27:23.530
118, -2873.56, -2672.34, -2905.35, -3306.48, 0.000, 0.000, 0.000, 14:27:23.530
119, -2868.22, -2670.92, -2891.34, -3304.88, 0.000, 0.000, 0.000, 14:27:23.564
120, -2862.99, -2663.10, -2893.07, -3305.00, 0.000, 0.000, 0.000, 14:27:23.564
121, -2876.30, -2666.64, -2906.33, -3308.86, 0.000, 0.000, 0.000, 14:27:23.564
122, -2889.99, -2697.41, -2925.51, -3328.30, 0.000, 0.000, 0.000, 14:27:23.564
123, -2869.92, -2681.64, -2903.68, -3323.71, 0.000, 0.000, 0.000, 14:27:23.565
124, -2882.71, -2678.18, -2895.89, -3312.78, 0.000, 0.000, 0.000, 14:27:23.565
125, -2894.86, -2692.01, -2940.69, -3324.44, 0.000, 0.000, 0.000, 14:27:23.565
126, -2874.81, -2673.78, -2912.41, -3309.06, 0.000, 0.000, 0.000, 14:27:23.566
127, -2861.37, -2658.76, -2893.80, -3296.33, 0.000, 0.000, 0.000, 14:27:23.566
128, -2908.54, -2698.29, -2931.83, -3332.33, 0.000, 0.000, 0.000, 14:27:23.566
129, -2895.61, -2685.63, -2915.33, -3327.65, 0.000, 0.000, 0.000, 14:27:23.588
130, -2878.30, -2679.26, -2904.57, -3317.13, 0.000, 0.000, 0.000, 14:27:23.588
131, -2880.52, -2696.05, -2924.02, -3323.88, 0.000, 0.000, 0.000, 14:27:23.590
132, -2883.78, -2692.00, -2911.58, -3323.15, 0.000, 0.000, 0.000, 14:27:23.590
133, -2879.34, -2689.72, -2906.20, -3314.10, 0.000, 0.000, 0.000, 14:27:23.591
134, -2896.88, -2709.86, -2915.53, -3335.80, 0.000, 0.000, 0.000, 14:27:23.591
135, -2883.34, -2686.06, -2913.54, -3320.00, 0.000, 0.000, 0.000, 14:27:23.593
136, -2871.24, -2664.13, -2904.51, -3308.59, 0.000, 0.000, 0.000, 14:27:23.594
137, -2891.63, -2687.39, -2921.53, -3315.08, 0.000, 0.000, 0.000, 14:27:23.598
138, -2876.22, -2678.87, -2904.71, -3312.23, 0.000, 0.000, 0.000, 14:27:23.598
139, -2860.31, -2669.13, -2894.65, -3297.29, 0.000, 0.000, 0.000, 14:27:23.598
140, -2912.66, -2704.74, -2926.16, -3329.19, 0.000, 0.000, 0.000, 14:27:23.599
141, -2905.60, -2703.09, -2933.62, -3334.37, 0.000, 0.000, 0.000, 14:27:23.777
142, -2890.57, -2680.39, -2906.52, -3320.60, 0.000, 0.000, 0.000, 14:27:23.777
143, -2894.43, -2696.43, -2921.95, -3322.58, 0.000, 0.000, 0.000, 14:27:23.778
144, -2873.01, -2674.46, -2905.26, -3310.28, 0.000, 0.000, 0.000, 14:27:23.779
145, -2898.20, -2689.43, -2918.68, -3324.83, 0.000, 0.000, 0.000, 14:27:23.779
146, -2908.55, -2721.21, -2934.63, -3338.05, 0.000, 0.000, 0.000, 14:27:23.780
147, -2897.57, -2705.65, -2927.17, -3332.27, 0.000, 0.000, 0.000, 14:27:23.780
148, -2877.78, -2690.29, -2916.39, -3322.63, 0.000, 0.000, 0.000, 14:27:23.780
149, -2901.38, -2701.16, -2925.79, -3328.38, 0.000, 0.000, 0.000, 14:27:23.781
150, -2889.74, -2686.18, -2908.22, -3322.37, 0.000, 0.000, 0.000, 14:27:23.781
151, -2863.05, -2673.35, -2891.40, -3305.02, 0.000, 0.000, 0.000, 14:27:23.782
152, -2912.06, -2718.31, -2946.11, -3347.72, 0.000, 0.000, 0.000, 14:27:23.782
153, -2901.63, -2705.66, -2932.21, -3346.29, 0.000, 0.000, 0.000, 14:27:23.783
154, -2881.59, -2682.88, -2911.90, -3324.63, 0.000, 0.000, 0.000, 14:27:23.783
155, -2879.47, -2698.92, -2913.55, -3332.00, 0.000, 0.000, 0.000, 14:27:23.784
156, -2886.29, -2695.56, -2912.36, -3329.51, 0.000, 0.000, 0.000, 14:27:23.784
157, -2892.89, -2687.86, -2910.01, -3323.57, 0.000, 0.000, 0.000, 14:27:23.784
158, -2911.48, -2724.00, -2938.62, -3355.05, 0.000, 0.000, 0.000, 14:27:23.785
159, -2902.45, -2704.56, -2934.25, -3339.38, 0.000, 0.000, 0.000, 14:27:23.789
160, -2893.71, -2694.91, -2919.50, -3336.86, 0.000, 0.000, 0.000, 14:27:23.789
161, -2905.23, -2709.70, -2940.19, -3338.91, 0.000, 0.000, 0.000, 14:27:23.789
162, -2893.44, -2689.85, -2916.52, -3324.60, 0.000, 0.000, 0.000, 14:27:23.790
163, -2884.37, -2684.77, -2921.10, -3319.42, 0.000, 0.000, 0.000, 14:27:23.790
164, -2907.03, -2714.47, -2939.92, -3333.73, 0.000, 0.000, 0.000, 14:27:23.790
165, -2905.47, -2701.90, -2940.85, -3339.12, 0.000, 0.000, 0.000, 14:27:23.790
166, -2896.54, -2697.15, -2929.93, -3332.07, 0.000, 0.000, 0.000, 14:27:23.791
167, -2895.70, -2700.85, -2924.55, -3325.51, 0.000, 0.000, 0.000, 14:27:23.791
168, -2899.30, -2695.73, -2928.69, -3324.27, 0.000, 0.000, 0.000, 14:27:23.791
169, -2896.48, -2696.64, -2924.38, -3327.93, 0.000, 0.000, 0.000, 14:27:23.791
170, -2913.41, -2716.07, -2941.59, -3343.05, 0.000, 0.000, 0.000, 14:27:23.792
171, -2903.77, -2709.50, -2936.49, -3338.75, 0.000, 0.000, 0.000, 14:27:23.794
172, -2893.37, -2698.01, -2923.90, -3341.25, 0.000, 0.000, 0.000, 14:27:23.794
173, -2919.75, -2725.49, -2947.76, -3350.71, 0.000, 0.000, 0.000, 14:27:23.794
174, -2900.58, -2706.58, -2930.48, -3330.32, 0.000, 0.000, 0.000, 14:27:23.794
175, -2887.78, -2691.64, -2920.43, -3313.71, 0.000, 0.000, 0.000, 14:27:23.795
176, -2929.64, -2745.28, -2949.52, -3359.30, 0.000, 0.000, 0.000, 14:27:23.795
177, -2929.63, -2736.49, -2959.32, -3359.70, 0.000, 0.000, 0.000, 14:27:23.796
178, -2899.13, -2696.65, -2932.57, -3327.79, 0.000, 0.000, 0.000, 14:27:23.796
179, -2914.75, -2724.93, -2945.69, -3356.02, 0.000, 0.000, 0.000, 14:27:23.797
180, -2905.27, -2708.26, -2931.85, -3346.94, 0.000, 0.000, 0.000, 14:27:23.798
181, -2888.95, -2688.06, -2912.81, -3321.21, 0.000, 0.000, 0.000, 14:27:23.798
182, -2912.34, -2718.56, -2938.94, -3337.22, 0.000, 0.000, 0.000, 14:27:23.798
183, -2898.22, -2700.51, -2930.50, -3335.94, 0.000, 0.000, 0.000, 14:27:23.798
184, -2883.89, -2682.17, -2916.07, -3331.23, 0.000, 0.000, 0.000, 14:27:23.799
185, -2890.04, -2698.97, -2917.80, -3336.94, 0.000, 0.000, 0.000, 14:27:23.799
186, -2891.28, -2694.78, -2912.76, -3335.32, 0.000, 0.000, 0.000, 14:27:23.799
187, -2885.35, -2685.47, -2915.12, -3323.14, 0.000, 0.000, 0.000, 14:27:23.799
188, -2915.18, -2708.57, -2945.80, -3341.29, 0.000, 0.000, 0.000, 14:27:23.799
189, -2902.17, -2700.36, -2933.37, -3332.14, 0.000, 0.000, 0.000, 14:27:23.800
190, -2884.05, -2686.90, -2912.18, -3319.45, 0.000, 0.000, 0.000, 14:27:23.800
191, -2893.38, -2696.90, -2928.59, -3333.47, 0.000, 0.000, 0.000, 14:27:23.800
192, -2894.09, -2698.61, -2922.24, -3331.84, 0.000, 0.000, 0.000, 14:27:23.801
193, -2885.76, -2691.38, -2922.79, -3328.80, 0.000, 0.000, 0.000, 14:27:23.801
194, -2919.36, -2722.72, -2946.73, -3351.78, 0.000, 0.000, 0.000, 14:27:23.801
195, -2899.29, -2691.25, -2921.57, -3330.34, 0.000, 0.000, 0.000, 14:27:23.801
196, -2883.36, -2685.44, -2917.95, -3320.44, 0.000, 0.000, 0.000, 14:27:23.801
197, -2887.57, -2690.12, -2926.52, -3326.14, 0.000, 0.000, 0.000, 14:27:23.802
198, -2880.15, -2680.78, -2915.16, -3319.45, 0.000, 0.000, 0.000, 14:27:23.802
199, -2874.73, -2675.60, -2913.35, -3317.40, 0.000, 0.000, 0.000, 14:27:23.802
200, -2898.07, -2707.90, -2931.49, -3338.32, 0.000, 0.000, 0.000, 14:27:23.802
0, -2891.69, -2696.37, -2922.59, -3331.33, 0.000, 0.000, 0.000, 14:27:23.802
1, -2897.05, -2682.42, -2929.40, -3321.16, 0.000, 0.000, 0.000, 14:27:23.803
2, -2945.04, -2741.67, -2963.75, -3363.15, 0.000, 0.000, 0.000, 14:27:23.803
3, -2944.16, -2741.05, -2962.45, -3363.74, 0.000, 0.000, 0.000, 14:27:23.803
4, -2916.25, -2708.84, -2942.51, -3343.50, 0.000, 0.000, 0.000, 14:27:23.804
5, -2902.70, -2704.85, -2931.68, -3341.64, 0.000, 0.000, 0.000, 14:27:23.809
6, -2884.44, -2684.60, -2917.97, -3318.82, 0.000, 0.000, 0.000, 14:27:23.809
7, -2873.88, -2679.31, -2906.33, -3308.58, 0.000, 0.000, 0.000, 14:27:23.810
8, -2908.15, -2710.54, -2936.83, -3344.18, 0.000, 0.000, 0.000, 14:27:23.810
9, -2893.21, -2697.48, -2923.30, -3329.74, 0.000, 0.000, 0.000, 14:27:23.812
10, -2881.76, -2678.75, -2914.06, -3311.51, 0.000, 0.000, 0.000, 14:27:23.813
11, -2900.29, -2701.51, -2925.56, -3332.66, 0.000, 0.000, 0.000, 14:27:23.814
12, -2894.33, -2686.72, -2925.96, -3321.57, 0.000, 0.000, 0.000, 14:27:23.814
13, -2887.35, -2682.63, -2911.50, -3320.93, 0.000, 0.000, 0.000, 14:27:23.814
14, -2925.62, -2725.21, -2943.30, -3350.91, 0.000, 0.000, 0.000, 14:27:23.814
15, -2904.33, -2710.14, -2926.13, -3340.47, 0.000, 0.000, 0.000, 14:27:23.814
16, -2887.90, -2688.91, -2912.43, -3321.20, 0.000, 0.000, 0.000, 14:27:23.815
17, -2904.60, -2704.85, -2926.83, -3341.20, 0.000, 0.000, 0.000, 14:27:23.815
18, -2887.18, -2688.52, -2915.24, -3328.33, 0.000, 0.000, 0.000, 14:27:23.816
19, -2888.20, -2689.71, -2920.77, -3323.19, 0.000, 0.000, 0.000, 14:27:23.816
20, -2914.70, -2715.48, -2943.29, -3354.75, 0.000, 0.000, 0.000, 14:27:23.816
21, -2895.05, -2695.59, -2926.00, -3338.09, 0.000, 0.000, 0.000, 14:27:23.816
22, -2880.44, -2673.02, -2909.31, -3318.94, 0.000, 0.000, 0.000, 14:27:23.816
23, -2867.66, -2662.26, -2906.54, -3310.02, 0.000, 0.000, 0.000, 14:27:23.817
24, -2852.74, -2652.63, -2894.84, -3301.98, 0.000, 0.000, 0.000, 14:27:23.817
25, -2842.04, -2646.24, -2885.07, -3297.22, 0.000, 0.000, 0.000, 14:27:23.817
26, -2860.64, -2671.29, -2904.91, -3312.71, 0.000, 0.000, 0.000, 14:27:23.817
27, -2857.37, -2659.51, -2897.29, -3315.47, 0.000, 0.000, 0.000, 14:27:23.818
28, -2852.00, -2655.89, -2883.28, -3303.10, 0.000, 0.000, 0.000, 14:27:23.818
29, -2851.32, -2657.25, -2885.87, -3304.20, 0.000, 0.000, 0.000, 14:27:23.818
30, -2842.54, -2647.84, -2885.84, -3290.69, 0.000, 0.000, 0.000, 14:27:23.818
31, -2839.01, -2651.95, -2882.23, -3290.14, 0.000, 0.000, 0.000, 14:27:23.818
32, -2861.63, -2673.47, -2902.01, -3309.96, 0.000, 0.000, 0.000, 14:27:23.819
33, -2869.50, -2669.51, -2904.80, -3309.21, 0.000, 0.000, 0.000, 14:27:23.819
34, -2858.93, -2657.65, -2895.36, -3300.99, 0.000, 0.000, 0.000, 14:27:23.819
35, -2863.84, -2666.55, -2897.89, -3298.58, 0.000, 0.000, 0.000, 14:27:23.819
36, -2871.31, -2674.52, -2902.25, -3313.52, 0.000, 0.000, 0.000, 14:27:23.820
37, -2858.73, -2669.16, -2900.83, -3307.38, 0.000, 0.000, 0.000, 14:27:23.820
38, -2889.16, -2702.06, -2922.89, -3330.53, 0.000, 0.000, 0.000, 14:27:23.820
39, -2880.78, -2687.61, -2917.17, -3316.59, 0.000, 0.000, 0.000, 14:27:23.820
40, -2883.88, -2686.82, -2916.13, -3332.85, 0.000, 0.000, 0.000, 14:27:23.820
41, -2939.61, -2740.43, -2962.20, -3363.43, 0.000, 0.000, 0.000, 14:27:23.821
42, -2967.99, -2782.62, -2988.84, -3389.39, 0.000, 0.000, 0.000, 14:27:23.821
43, -2926.34, -2729.87, -2955.25, -3368.01, 0.000, 0.000, 0.000, 14:27:23.821
44, -2963.30, -2780.72, -2991.16, -3395.69, 0.000, 0.000, 0.000, 14:27:23.821
45, -2992.38, -2803.71, -3014.60, -3421.12, 0.000, 0.000, 0.000, 14:27:23.822
46, -2929.78, -2739.63, -2963.86, -3363.14, 0.000, 0.000, 0.000, 14:27:23.822
47, -2969.91, -2775.66, -2981.59, -3386.21, 0.000, 0.000, 0.000, 14:27:23.822
48, -2995.10, -2802.59, -3008.16, -3408.32, 0.000, 0.000, 0.000, 14:27:23.822
49, -2932.94, -2737.54, -2961.36, -3362.83, 0.000, 0.000, 0.000, 14:27:23.822
50, -2957.57, -2762.05, -2978.88, -3372.79, 0.000, 0.000, 0.000, 14:27:23.823
51, -2984.53, -2791.99, -3006.09, -3405.36, 0.000, 0.000, 0.000, 14:27:23.823
52, -2925.26, -2733.10, -2954.65, -3361.35, 0.000, 0.000, 0.000, 14:27:23.823
53, -2956.64, -2767.74, -2976.08, -3385.41, 0.000, 0.000, 0.000, 14:27:23.823
54, -2966.26, -2778.40, -2983.17, -3388.41, 0.000, 0.000, 0.000, 14:27:23.823
55, -2918.18, -2716.13, -2933.40, -3341.62, 0.000, 0.000, 0.000, 14:27:23.824
56, -2902.09, -2704.91, -2929.38, -3333.32, 0.000, 0.000, 0.000, 14:27:23.824
57, -2867.36, -2667.93, -2889.10, -3301.34, 0.000, 0.000, 0.000, 14:27:23.824
58, -2854.38, -2648.03, -2880.10, -3286.13, 0.000, 0.000, 0.000, 14:27:23.824
59, -2860.26, -2657.57, -2891.83, -3290.27, 0.000, 0.000, 0.000, 14:27:23.824
60, -2850.75, -2648.46, -2879.42, -3289.26, 0.000, 0.000, 0.000, 14:27:23.825
61, -2850.13, -2644.83, -2874.84, -3286.68, 0.000, 0.000, 0.000, 14:27:23.825
62, -2870.55, -2673.63, -2896.54, -3306.48, 0.000, 0.000, 0.000, 14:27:23.825
63, -2873.45, -2670.98, -2902.50, -3308.52, 0.000, 0.000, 0.000, 14:27:23.825
64, -2881.84, -2678.65, -2905.52, -3317.25, 0.000, 0.000, 0.000, 14:27:23.825
65, -2929.30, -2731.15, -2948.32, -3342.11, 0.000, 0.000, 0.000, 14:27:23.826
66, -2958.43, -2767.92, -2982.56, -3386.13, 0.000, 0.000, 0.000, 14:27:23.826
67, -2904.93, -2703.30, -2934.95, -3332.02, 0.000, 0.000, 0.000, 14:27:23.826
68, -2938.53, -2741.40, -2955.43, -3351.49, 0.000, 0.000, 0.000, 14:27:23.826
69, -2944.21, -2757.86, -2971.49, -3373.88, 0.000, 0.000, 0.000, 14:27:23.826
70, -2883.76, -2694.32, -2924.31, -3328.18, 0.000, 0.000, 0.000, 14:27:23.827
71, -2919.36, -2727.44, -2945.36, -3350.24, 0.000, 0.000, 0.000, 14:27:23.827
72, -2918.56, -2730.20, -2951.16, -3350.33, 0.000, 0.000, 0.000, 14:27:23.827
73, -2882.94, -2686.79, -2917.76, -3320.92, 0.000, 0.000, 0.000, 14:27:23.827
74, -2871.55, -2670.45, -2903.00, -3305.53, 0.000, 0.000, 0.000, 14:27:23.827
75, -2862.93, -2650.23, -2889.55, -3298.18, 0.000, 0.000, 0.000, 14:27:23.828
76, -2852.38, -2645.47, -2882.99, -3288.23, 0.000, 0.000, 0.000, 14:27:23.828
77, -2860.85, -2663.41, -2886.76, -3293.49, 0.000, 0.000, 0.000, 14:27:23.828
78, -2849.74, -2647.20, -2877.69, -3287.93, 0.000, 0.000, 0.000, 14:27:23.829
79, -2839.77, -2633.39, -2869.52, -3274.99, 0.000, 0.000, 0.000, 14:27:23.830
80, -2877.28, -2676.24, -2905.14, -3311.89, 0.000, 0.000, 0.000, 14:27:23.830
81, -2853.88, -2660.89, -2888.11, -3296.22, 0.000, 0.000, 0.000, 14:27:23.831
82, -2857.12, -2649.22, -2880.19, -3290.08, 0.000, 0.000, 0.000, 14:27:23.831
83, -2872.57, -2671.88, -2898.55, -3300.24, 0.000, 0.000, 0.000, 14:27:23.831
84, -2869.35, -2665.18, -2895.49, -3299.71, 0.000, 0.000, 0.000, 14:27:23.832
85, -2868.04, -2664.41, -2898.76, -3294.54, 0.000, 0.000, 0.000, 14:27:23.833
86, -2893.21, -2699.81, -2930.92, -3323.86, 0.000, 0.000, 0.000, 14:27:23.833
87, -2881.18, -2691.90, -2912.41, -3314.60, 0.000, 0.000, 0.000, 14:27:23.834
88, -2872.66, -2675.72, -2896.72, -3309.73, 0.000, 0.000, 0.000, 14:27:23.835
89, -2887.32, -2686.97, -2908.08, -3323.69, 0.000, 0.000, 0.000, 14:27:23.835
90, -2883.27, -2686.99, -2901.16, -3315.36, 0.000, 0.000, 0.000, 14:27:23.835
91, -2887.09, -2686.49, -2910.95, -3318.65, 0.000, 0.000, 0.000, 14:27:23.836
92, -2922.64, -2718.64, -2937.87, -3338.62, 0.000, 0.000, 0.000, 14:27:23.836
93, -2898.14, -2694.45, -2919.57, -3330.68, 0.000, 0.000, 0.000, 14:27:23.837
94, -2885.98, -2693.63, -2916.59, -3323.02, 0.000, 0.000, 0.000, 14:27:23.837
95, -2911.85, -2723.90, -2938.68, -3344.74, 0.000, 0.000, 0.000, 14:27:23.837
96, -2904.45, -2712.30, -2934.57, -3346.91, 0.000, 0.000, 0.000, 14:27:23.838
97, -2896.10, -2703.19, -2926.56, -3327.72, 0.000, 0.000, 0.000, 14:27:23.838
98, -2916.82, -2729.88, -2946.92, -3345.12, 0.000, 0.000, 0.000, 14:27:23.838
99, -2912.82, -2728.90, -2942.88, -3346.87, 0.000, 0.000, 0.000, 14:27:23.839
100, -2914.78, -2724.88, -2949.74, -3349.34, 0.000, 0.000, 0.000, 14:27:23.840
101, -2921.11, -2734.14, -2953.18, -3348.75, 0.000, 0.000, 0.000, 14:27:23.840
102, -2913.56, -2719.41, -2941.66, -3342.22, 0.000, 0.000, 0.000, 14:27:23.840
103, -2907.42, -2714.14, -2937.02, -3345.82, 0.000, 0.000, 0.000, 14:27:23.841
104, -2937.35, -2746.47, -2960.16, -3367.12, 0.000, 0.000, 0.000, 14:27:23.841
105, -2915.76, -2719.81, -2943.52, -3347.57, 0.000, 0.000, 0.000, 14:27:23.841
106, -2897.59, -2701.39, -2927.43, -3332.48, 0.000, 0.000, 0.000, 14:27:23.842
107, -2894.53, -2699.61, -2929.39, -3328.45, 0.000, 0.000, 0.000, 14:27:23.842
108, -2878.64, -2674.00, -2912.81, -3314.87, 0.000, 0.000, 0.000, 14:27:23.843
109, -2874.83, -2665.91, -2905.42, -3309.83, 0.000, 0.000, 0.000, 14:27:23.844
110, -2868.77, -2663.46, -2906.48, -3305.47, 0.000, 0.000, 0.000, 14:27:23.844
111, -2849.37, -2637.12, -2887.98, -3287.96, 0.000, 0.000, 0.000, 14:27:23.845
112, -2847.22, -2633.69, -2886.71, -3290.72, 0.000, 0.000, 0.000, 14:27:23.846
113, -2871.56, -2661.06, -2905.75, -3299.81, 0.000, 0.000, 0.000, 14:27:23.846
114, -2841.32, -2630.48, -2876.76, -3276.50, 0.000, 0.000, 0.000, 14:27:23.847
115, -2821.47, -2611.47, -2860.37, -3265.76, 0.000, 0.000, 0.000, 14:27:23.847
116, -2855.56, -2642.61, -2885.92, -3283.27, 0.000, 0.000, 0.000, 14:27:23.848
117, -2833.13, -2620.23, -2871.26, -3261.23, 0.000, 0.000, 0.000, 14:27:23.848
118, -2807.90, -2598.01, -2844.88, -3243.32, 0.000, 0.000, 0.000, 14:27:23.849
119, -2815.96, -2598.82, -2844.85, -3244.38, 0.000, 0.000, 0.000, 14:27:23.849
120, -2804.48, -2601.23, -2839.61, -3250.45, 0.000, 0.000, 0.000, 14:27:23.850
121, -2800.80, -2595.28, -2827.97, -3238.17, 0.000, 0.000, 0.000, 14:27:23.851
122, -2831.33, -2624.08, -2847.51, -3259.47, 0.000, 0.000, 0.000, 14:27:23.851
123, -2828.09, -2628.15, -2847.73, -3261.77, 0.000, 0.000, 0.000, 14:27:23.852
124, -2816.71, -2618.46, -2847.80, -3254.39, 0.000, 0.000, 0.000, 14:27:23.852
125, -2833.61, -2635.00, -2863.76, -3274.91, 0.000, 0.000, 0.000, 14:27:23.853
126, -2828.65, -2626.97, -2864.98, -3267.98, 0.000, 0.000, 0.000, 14:27:23.853
127, -2832.21, -2628.21, -2865.46, -3272.57, 0.000, 0.000, 0.000, 14:27:23.856
128, -2868.14, -2672.40, -2895.48, -3308.62, 0.000, 0.000, 0.000, 14:27:23.856
129, -2863.24, -2669.02, -2892.26, -3307.81, 0.000, 0.000, 0.000, 14:27:23.857
130, -2854.68, -2654.02, -2879.44, -3299.49, 0.000, 0.000, 0.000, 14:27:23.857
131, -2864.02, -2671.52, -2894.39, -3309.17, 0.000, 0.000, 0.000, 14:27:23.858
132, -2865.66, -2662.34, -2891.84, -3301.49, 0.000, 0.000, 0.000, 14:27:23.858
133, -2862.18, -2655.01, -2888.84, -3294.34, 0.000, 0.000, 0.000, 14:27:23.859
134, -2895.69, -2699.74, -2923.64, -3324.64, 0.000, 0.000, 0.000, 14:27:23.859
135, -2885.02, -2685.71, -2915.95, -3324.65, 0.000, 0.000, 0.000, 14:27:23.860
136, -2886.11, -2675.59, -2912.34, -3315.80, 0.000, 0.000, 0.000, 14:27:23.860
137, -2896.08, -2684.33, -2920.71, -3312.95, 0.000, 0.000, 0.000, 14:27:23.861
138, -2886.15, -2676.96, -2914.04, -3317.40, 0.000, 0.000, 0.000, 14:27:23.878
139, -2882.21, -2672.45, -2912.35, -3312.95, 0.000, 0.000, 0.000, 14:27:23.880
140, -2907.73, -2712.99, -2936.83, -3340.94, 0.000, 0.000, 0.000, 14:27:23.880
141, -2893.87, -2701.18, -2926.74, -3334.28, 0.000, 0.000, 0.000, 14:27:23.881
142, -2893.11, -2704.23, -2922.60, -3333.98, 0.000, 0.000, 0.000, 14:27:23.882
143, -2914.89, -2717.43, -2933.62, -3348.47, 0.000, 0.000, 0.000, 14:27:23.882
144, -2925.37, -2723.56, -2949.76, -3345.44, 0.000, 0.000, 0.000, 14:27:23.882
145, -2929.56, -2726.96, -2950.07, -3335.18, 0.000, 0.000, 0.000, 14:27:23.884
146, -2956.13, -2760.67, -2976.46, -3365.65, 0.000, 0.000, 0.000, 14:27:23.884
147, -2954.99, -2755.86, -2967.71, -3367.80, 0.000, 0.000, 0.000, 14:27:23.909
148, -2947.64, -2758.21, -2963.22, -3382.60, 0.000, 0.000, 0.000, 14:27:23.909
149, -2954.17, -2769.62, -2976.90, -3389.02, 0.000, 0.000, 0.000, 14:27:23.910
150, -2936.11, -2751.62, -2958.43, -3370.19, 0.000, 0.000, 0.000, 14:27:23.910
151, -2919.61, -2737.49, -2946.44, -3359.62, 0.000, 0.000, 0.000, 14:27:23.969
152, -2941.31, -2758.78, -2969.49, -3379.73, 0.000, 0.000, 0.000, 14:27:23.970
153, -2922.94, -2736.66, -2951.93, -3364.22, 0.000, 0.000, 0.000, 14:27:23.970
154, -2919.13, -2723.25, -2939.92, -3354.57, 0.000, 0.000, 0.000, 14:27:23.971
155, -2951.17, -2763.87, -2978.43, -3388.03, 0.000, 0.000, 0.000, 14:27:23.971
156, -2944.29, -2756.07, -2977.93, -3369.29, 0.000, 0.000, 0.000, 14:27:23.971
157, -2930.81, -2734.88, -2964.04, -3363.71, 0.000, 0.000, 0.000, 14:27:23.987
158, -2956.83, -2755.81, -2979.06, -3374.47, 0.000, 0.000, 0.000, 14:27:23.987
159, -2941.00, -2740.56, -2970.57, -3371.21, 0.000, 0.000, 0.000, 14:27:23.988
160, -2933.90, -2726.42, -2961.02, -3358.33, 0.000, 0.000, 0.000, 14:27:23.988
161, -2945.07, -2743.44, -2966.37, -3369.23, 0.000, 0.000, 0.000, 14:27:23.989
162, -2924.00, -2722.82, -2949.75, -3357.92, 0.000, 0.000, 0.000, 14:27:23.989
163, -2927.28, -2723.18, -2953.70, -3366.91, 0.000, 0.000, 0.000, 14:27:23.997
164, -2955.17, -2759.40, -2977.32, -3385.05, 0.000, 0.000, 0.000, 14:27:23.998
165, -2938.58, -2748.20, -2970.77, -3370.72, 0.000, 0.000, 0.000, 14:27:23.999
166, -2927.27, -2727.23, -2948.77, -3350.90, 0.000, 0.000, 0.000, 14:27:24.000
167, -2924.47, -2728.69, -2951.06, -3361.09, 0.000, 0.000, 0.000, 14:27:24.001
168, -2925.56, -2726.53, -2956.34, -3359.93, 0.000, 0.000, 0.000, 14:27:24.005
169, -2917.73, -2722.78, -2950.93, -3358.29, 0.000, 0.000, 0.000, 14:27:24.007
170, -2938.45, -2739.84, -2966.66, -3372.41, 0.000, 0.000, 0.000, 14:27:24.007
171, -2930.10, -2731.58, -2966.97, -3364.80, 0.000, 0.000, 0.000, 14:27:24.007
172, -2913.00, -2716.39, -2951.52, -3355.28, 0.000, 0.000, 0.000, 14:27:24.008
173, -2931.12, -2730.95, -2959.16, -3352.78, 0.000, 0.000, 0.000, 14:27:24.008
174, -2918.20, -2716.31, -2951.47, -3354.13, 0.000, 0.000, 0.000, 14:27:24.008
175, -2929.27, -2723.16, -2953.26, -3357.56, 0.000, 0.000, 0.000, 14:27:24.009
176, -2948.08, -2745.01, -2974.16, -3365.31, 0.000, 0.000, 0.000, 14:27:24.016
177, -2927.45, -2722.11, -2962.04, -3356.13, 0.000, 0.000, 0.000, 14:27:24.017
178, -2915.47, -2705.04, -2946.57, -3346.56, 0.000, 0.000, 0.000, 14:27:24.017
179, -2937.92, -2750.69, -2977.90, -3374.52, 0.000, 0.000, 0.000, 14:27:24.017
180, -2926.22, -2737.83, -2960.90, -3365.96, 0.000, 0.000, 0.000, 14:27:24.017
181, -2913.61, -2719.17, -2945.87, -3345.91, 0.000, 0.000, 0.000, 14:27:24.017
182, -2937.13, -2737.82, -2964.71, -3355.68, 0.000, 0.000, 0.000, 14:27:24.017
183, -2927.51, -2717.38, -2955.43, -3350.53, 0.000, 0.000, 0.000, 14:27:24.018
184, -2915.64, -2705.40, -2940.98, -3341.79, 0.000, 0.000, 0.000, 14:27:24.018
185, -2919.57, -2712.50, -2942.89, -3349.45, 0.000, 0.000, 0.000, 14:27:24.018
186, -2905.60, -2710.08, -2940.75, -3343.21, 0.000, 0.000, 0.000, 14:27:24.018
187, -2911.41, -2713.05, -2942.32, -3342.96, 0.000, 0.000, 0.000, 14:27:24.018
188, -2946.83, -2761.39, -2980.33, -3385.18, 0.000, 0.000, 0.000, 14:27:24.018
189, -2930.01, -2739.60, -2957.22, -3362.42, 0.000, 0.000, 0.000, 14:27:24.019
190, -2917.86, -2723.84, -2943.70, -3352.27, 0.000, 0.000, 0.000, 14:27:24.019
191, -2933.09, -2737.42, -2956.70, -3351.04, 0.000, 0.000, 0.000, 14:27:24.019
192, -2918.36, -2718.45, -2950.40, -3351.17, 0.000, 0.000, 0.000, 14:27:24.019
193, -2911.19, -2706.09, -2933.90, -3330.63, 0.000, 0.000, 0.000, 14:27:24.019
194, -2935.75, -2747.56, -2962.51, -3358.51, 0.000, 0.000, 0.000, 14:27:24.020
195, -2921.07, -2730.31, -2955.98, -3354.79, 0.000, 0.000, 0.000, 14:27:24.020
196, -2910.98, -2713.03, -2943.88, -3344.13, 0.000, 0.000, 0.000, 14:27:24.020
197, -2958.61, -2760.88, -2979.66, -3375.65, 0.000, 0.000, 0.000, 14:27:24.020
198, -2989.95, -2794.73, -3003.53, -3404.16, 0.000, 0.000, 0.000, 14:27:24.020
199, -2939.31, -2738.73, -2962.30, -3371.11, 0.000, 0.000, 0.000, 14:27:24.020
200, -2965.17, -2777.08, -2985.85, -3380.09, 0.000, 0.000, 0.000, 14:27:24.021
0, -2974.96, -2796.75, -3005.36, -3404.33, 0.000, 0.000, 0.000, 14:27:24.021
1, -2926.16, -2726.94, -2950.37, -3350.95, 0.000, 0.000, 0.000, 14:27:24.021
2, -2965.71, -2774.80, -2991.80, -3392.52, 0.000, 0.000, 0.000, 14:27:24.021
119, -2990.81, -2813.73, -3013.45, -3412.38, 0.000, 0.000, 0.000, 14:27:24.022
120, -2998.31, -2818.15, -3022.67, -3411.09, 0.000, 0.000, 0.000, 14:27:24.022
121, -2956.62, -2769.83, -2980.79, -3370.02, 0.000, 0.000, 0.000, 14:27:24.022
122, -2946.24, -2762.57, -2967.38, -3374.03, 0.000, 0.000, 0.000, 14:27:24.022
123, -2931.15, -2744.48, -2958.82, -3356.90, 0.000, 0.000, 0.000, 14:27:24.024
124, -2921.23, -2725.89, -2947.27, -3345.63, 0.000, 0.000, 0.000, 14:27:24.024
125, -2935.47, -2753.66, -2965.60, -3360.75, 0.000, 0.000, 0.000, 14:27:24.025
126, -2926.61, -2745.69, -2956.91, -3354.07, 0.000, 0.000, 0.000, 14:27:24.025
127, -2930.83, -2742.45, -2956.09, -3350.85, 0.000, 0.000, 0.000, 14:27:24.025
128, -2940.34, -2760.88, -2958.58, -3370.83, 0.000, 0.000, 0.000, 14:27:24.026
129, -2930.91, -2749.45, -2947.82, -3357.01, 0.000, 0.000, 0.000, 14:27:24.026
130, -2928.59, -2745.42, -2951.61, -3360.37, 0.000, 0.000, 0.000, 14:27:24.026
131, -2934.52, -2755.22, -2958.39, -3358.97, 0.000, 0.000, 0.000, 14:27:24.027
132, -2926.80, -2746.44, -2953.69, -3355.66, 0.000, 0.000, 0.000, 14:27:24.027
133, -2926.55, -2748.24, -2953.00, -3356.68, 0.000, 0.000, 0.000, 14:27:24.027
134, -2982.34, -2815.73, -3001.14, -3408.69, 0.000, 0.000, 0.000, 14:27:24.027
135, -2981.96, -2816.98, -3002.77, -3402.01, 0.000, 0.000, 0.000, 14:27:24.028
136, -2945.40, -2781.38, -2973.00, -3370.51, 0.000, 0.000, 0.000, 14:27:24.028
137, -2950.95, -2784.87, -2972.44, -3372.14, 0.000, 0.000, 0.000, 14:27:24.029
138, -2934.66, -2769.20, -2964.35, -3359.16, 0.000, 0.000, 0.000, 14:27:24.029
139, -2933.91, -2764.31, -2960.78, -3358.84, 0.000, 0.000, 0.000, 14:27:24.029
140, -2958.03, -2794.15, -2977.01, -3376.42, 0.000, 0.000, 0.000, 14:27:24.029
141, -2949.44, -2772.73, -2964.38, -3367.59, 0.000, 0.000, 0.000, 14:27:24.029
142, -2947.80, -2767.19, -2963.94, -3367.43, 0.000, 0.000, 0.000, 14:27:24.030
143, -2967.12, -2787.53, -2983.20, -3371.50, 0.000, 0.000, 0.000, 14:27:24.030
144, -2950.38, -2768.73, -2968.68, -3358.95, 0.000, 0.000, 0.000, 14:27:24.030
145, -2945.85, -2763.02, -2969.70, -3359.91, 0.000, 0.000, 0.000, 14:27:24.030
146, -2971.24, -2790.07, -2986.15, -3388.89, 0.000, 0.000, 0.000, 14:27:24.031
147, -2958.71, -2776.49, -2978.75, -3382.74, 0.000, 0.000, 0.000, 14:27:24.031
148, -2959.94, -2785.39, -2978.83, -3376.04, 0.000, 0.000, 0.000, 14:27:24.031
149, -2973.90, -2797.04, -2991.21, -3388.90, 0.000, 0.000, 0.000, 14:27:24.031
150, -2968.66, -2794.20, -2985.17, -3379.69, 0.000, 0.000, 0.000, 14:27:24.031
151, -2961.14, -2789.36, -2980.58, -3380.00, 0.000, 0.000, 0.000, 14:27:24.032
152, -2983.17, -2808.29, -3001.21, -3392.25, 0.000, 0.000, 0.000, 14:27:24.032
153, -2973.36, -2803.09, -2999.83, -3387.07, 0.000, 0.000, 0.000, 14:27:24.032
154, -2970.99, -2795.41, -2998.43, -3382.24, 0.000, 0.000, 0.000, 14:27:24.032
155, -3009.16, -2832.77, -3020.92, -3405.56, 0.000, 0.000, 0.000, 14:27:24.033
156, -2985.98, -2815.05, -3002.68, -3395.50, 0.000, 0.000, 0.000, 14:27:24.033
157, -2963.29, -2795.40, -2989.91, -3379.99, 0.000, 0.000, 0.000, 14:27:24.033
158, -3021.19, -2848.80, -3030.81, -3428.55, 0.000, 0.000, 0.000, 14:27:24.033
159, -3051.89, -2888.85, -3056.80, -3462.11, 0.000, 0.000, 0.000, 14:27:24.033
160, -2995.41, -2818.71, -3004.56, -3412.07, 0.000, 0.000, 0.000, 14:27:24.033
161, -3025.83, -2849.26, -3027.01, -3431.91, 0.000, 0.000, 0.000, 14:27:24.034
162, -3055.32, -2895.53, -3069.84, -3465.25, 0.000, 0.000, 0.000, 14:27:24.034
163, -2996.72, -2826.29, -3016.25, -3418.01, 0.000, 0.000, 0.000, 14:27:24.034
164, -3027.99, -2862.55, -3034.68, -3441.75, 0.000, 0.000, 0.000, 14:27:24.034
165, -3053.21, -2894.41, -3060.24, -3463.77, 0.000, 0.000, 0.000, 14:27:24.035
166, -2996.12, -2828.54, -3014.04, -3424.35, 0.000, 0.000, 0.000, 14:27:24.035
169, -2934.40, -2757.75, -2962.70, -3369.69, 0.000, 0.000, 0.000, 14:27:24.035
170, -2961.59, -2802.28, -2993.55, -3399.60, 0.000, 0.000, 0.000, 14:27:24.035
173, -2979.18, -2834.11, -3007.91, -3413.37, 0.000, 0.000, 0.000, 14:27:24.036
174, -2982.00, -2833.06, -3022.81, -3422.66, 0.000, 0.000, 0.000, 14:27:24.036
175, -2948.78, -2788.38, -2993.86, -3391.46, 0.000, 0.000, 0.000, 14:27:24.036
176, -2953.37, -2785.93, -2983.71, -3377.98, 0.000, 0.000, 0.000, 14:27:24.036
177, -2931.54, -2766.09, -2966.45, -3368.77, 0.000, 0.000, 0.000, 14:27:24.036
178, -2922.86, -2761.77, -2960.73, -3364.90, 0.000, 0.000, 0.000, 14:27:24.037
179, -2931.35, -2776.24, -2965.23, -3374.12, 0.000, 0.000, 0.000, 14:27:24.037
180, -2917.05, -2758.05, -2954.53, -3361.35, 0.000, 0.000, 0.000, 14:27:24.037
181, -2914.24, -2751.18, -2950.69, -3354.23, 0.000, 0.000, 0.000, 14:27:24.037
182, -2940.99, -2782.59, -2975.01, -3384.73, 0.000, 0.000, 0.000, 14:27:24.037
183, -2935.89, -2777.52, -2974.93, -3381.97, 0.000, 0.000, 0.000, 14:27:24.038
184, -2922.92, -2756.25, -2958.70, -3353.92, 0.000, 0.000, 0.000, 14:27:24.038
185, -2941.14, -2779.22, -2980.75, -3384.80, 0.000, 0.000, 0.000, 14:27:24.038
186, -2941.48, -2778.71, -2979.98, -3382.43, 0.000, 0.000, 0.000, 14:27:24.038
187, -2936.06, -2772.50, -2979.05, -3382.29, 0.000, 0.000, 0.000, 14:27:24.039
188, -2961.60, -2804.06, -2993.50, -3389.19, 0.000, 0.000, 0.000, 14:27:24.039
189, -2949.76, -2793.69, -2984.84, -3387.22, 0.000, 0.000, 0.000, 14:27:24.039
190, -2945.56, -2789.39, -2971.98, -3387.00, 0.000, 0.000, 0.000, 14:27:24.039
191, -2946.50, -2791.96, -2975.98, -3381.26, 0.000, 0.000, 0.000, 14:27:24.039
192, -2929.42, -2778.70, -2969.59, -3372.56, 0.000, 0.000, 0.000, 14:27:24.040
193, -2921.24, -2766.56, -2959.72, -3360.71, 0.000, 0.000, 0.000, 14:27:24.040
194, -2948.56, -2801.56, -2978.13, -3385.24, 0.000, 0.000, 0.000, 14:27:24.040
195, -2951.11, -2792.37, -2977.90, -3384.57, 0.000, 0.000, 0.000, 14:27:24.040
196, -2941.16, -2785.08, -2969.52, -3375.40, 0.000, 0.000, 0.000, 14:27:24.040
197, -2954.27, -2797.30, -2976.93, -3380.99, 0.000, 0.000, 0.000, 14:27:24.041
198, -2940.03, -2788.31, -2974.42, -3383.02, 0.000, 0.000, 0.000, 14:27:24.041
199, -2934.76, -2774.46, -2966.83, -3370.59, 0.000, 0.000, 0.000, 14:27:24.041
200, -2974.82, -2811.98, -2992.75, -3391.53, 0.000, 0.000, 0.000, 14:27:24.041
0, -2907.39, -2711.59, -2931.28, -3340.22, 0.000, 0.000, 0.000, 14:27:24.042
1, -2886.51, -2694.97, -2917.52, -3331.83, 0.000, 0.000, 0.000, 14:27:24.043
2, -2916.44, -2722.84, -2944.21, -3344.51, 0.000, 0.000, 0.000, 14:27:24.043
3, -2906.20, -2706.37, -2935.01, -3336.15, 0.000, 0.000, 0.000, 14:27:24.044
4, -2903.19, -2703.85, -2936.62, -3347.02, 0.000, 0.000, 0.000, 14:27:24.044
5, -2919.48, -2727.55, -2953.83, -3358.68, 0.000, 0.000, 0.000, 14:27:24.045
6, -2909.75, -2709.72, -2941.21, -3346.91, 0.000, 0.000, 0.000, 14:27:24.045
7, -2915.81, -2712.49, -2933.62, -3336.22, 0.000, 0.000, 0.000, 14:27:24.046
8, -2931.52, -2738.39, -2958.65, -3358.40, 0.000, 0.000, 0.000, 14:27:24.046
9, -2912.86, -2728.81, -2952.65, -3353.69, 0.000, 0.000, 0.000, 14:27:24.047
10, -2898.56, -2705.79, -2941.08, -3339.75, 0.000, 0.000, 0.000, 14:27:24.047
11, -2901.49, -2708.84, -2938.35, -3340.00, 0.000, 0.000, 0.000, 14:27:24.048
12, -2890.86, -2690.22, -2926.94, -3327.68, 0.000, 0.000, 0.000, 14:27:24.048
13, -2889.31, -2684.53, -2923.69, -3320.39, 0.000, 0.000, 0.000, 14:27:24.048
14, -2925.06, -2731.70, -2954.71, -3349.16, 0.000, 0.000, 0.000, 14:27:24.049
15, -2902.92, -2712.11, -2938.86, -3342.21, 0.000, 0.000, 0.000, 14:27:24.049
16, -2891.98, -2698.12, -2921.59, -3328.46, 0.000, 0.000, 0.000, 14:27:24.050
17, -2899.01, -2705.54, -2925.80, -3333.11, 0.000, 0.000, 0.000, 14:27:24.050
18, -2888.87, -2689.80, -2923.12, -3325.96, 0.000, 0.000, 0.000, 14:27:24.050
19, -2887.46, -2684.27, -2918.96, -3320.12, 0.000, 0.000, 0.000, 14:27:24.051
20, -2935.92, -2730.66, -2960.07, -3355.20, 0.000, 0.000, 0.000, 14:27:24.051
21, -2924.78, -2728.52, -2950.19, -3348.02, 0.000, 0.000, 0.000, 14:27:24.063
22, -2912.64, -2708.05, -2941.72, -3344.45, 0.000, 0.000, 0.000, 14:27:24.063
23, -2907.56, -2714.24, -2941.49, -3349.38, 0.000, 0.000, 0.000, 14:27:24.064
24, -2890.64, -2697.15, -2935.70, -3340.25, 0.000, 0.000, 0.000, 14:27:24.065
25, -2890.88, -2696.06, -2933.04, -3333.93, 0.000, 0.000, 0.000, 14:27:24.080
26, -2926.11, -2721.17, -2949.97, -3355.91, 0.000, 0.000, 0.000, 14:27:24.081
27, -2913.15, -2710.42, -2939.72, -3340.71, 0.000, 0.000, 0.000, 14:27:24.092
28, -2902.97, -2704.22, -2924.30, -3338.01, 0.000, 0.000, 0.000, 14:27:24.092
29, -2908.11, -2706.85, -2930.60, -3339.02, 0.000, 0.000, 0.000, 14:27:24.094
30, -2911.46, -2709.20, -2939.64, -3342.21, 0.000, 0.000, 0.000, 14:27:24.094
31, -2894.76, -2697.19, -2928.04, -3330.20, 0.000, 0.000, 0.000, 14:27:24.114
32, -2927.36, -2733.38, -2952.72, -3355.64, 0.000, 0.000, 0.000, 14:27:24.114
33, -2917.50, -2720.39, -2954.44, -3351.68, 0.000, 0.000, 0.000, 14:27:24.128
34, -2911.84, -2703.58, -2941.90, -3347.68, 0.000, 0.000, 0.000, 14:27:24.128
35, -2909.84, -2708.80, -2945.11, -3336.97, 0.000, 0.000, 0.000, 14:27:24.143
36, -2892.39, -2695.88, -2931.37, -3327.72, 0.000, 0.000, 0.000, 14:27:24.143
37, -2895.90, -2698.37, -2924.81, -3329.62, 0.000, 0.000, 0.000, 14:27:24.144
38, -2919.36, -2725.70, -2941.10, -3344.78, 0.000, 0.000, 0.000, 14:27:24.144
39, -2908.95, -2716.48, -2936.88, -3337.18, 0.000, 0.000, 0.000, 14:27:24.152
40, -2898.42, -2697.48, -2929.15, -3332.19, 0.000, 0.000, 0.000, 14:27:24.153
41, -2927.27, -2733.32, -2955.48, -3360.63, 0.000, 0.000, 0.000, 14:27:24.153
42, -2917.74, -2719.80, -2945.48, -3350.93, 0.000, 0.000, 0.000, 14:27:24.154
43, -2902.61, -2692.19, -2927.61, -3336.32, 0.000, 0.000, 0.000, 14:27:24.177
44, -2913.70, -2711.74, -2942.32, -3347.59, 0.000, 0.000, 0.000, 14:27:24.177
45, -2906.28, -2714.87, -2934.53, -3340.91, 0.000, 0.000, 0.000, 14:27:24.184
46, -2903.32, -2712.27, -2927.13, -3333.06, 0.000, 0.000, 0.000, 14:27:24.185
47, -2923.49, -2723.63, -2942.31, -3352.52, 0.000, 0.000, 0.000, 14:27:24.185
48, -2907.26, -2706.65, -2928.48, -3335.71, 0.000, 0.000, 0.000, 14:27:24.186
49, -2900.62, -2708.89, -2919.29, -3332.32, 0.000, 0.000, 0.000, 14:27:24.199
50, -2921.26, -2726.58, -2934.55, -3347.04, 0.000, 0.000, 0.000, 14:27:24.200
51, -2911.73, -2710.46, -2934.92, -3330.91, 0.000, 0.000, 0.000, 14:27:24.230
52, -2902.12, -2702.31, -2924.48, -3330.36, 0.000, 0.000, 0.000, 14:27:24.230
53, -2910.09, -2719.07, -2935.76, -3342.69, 0.000, 0.000, 0.000, 14:27:24.231
54, -2899.32, -2710.65, -2931.01, -3340.71, 0.000, 0.000, 0.000, 14:27:24.231
55, -2886.99, -2688.94, -2915.95, -3318.65, 0.000, 0.000, 0.000, 14:27:24.232
56, -2908.04, -2715.38, -2933.51, -3339.17, 0.000, 0.000, 0.000, 14:27:24.232
57, -2902.90, -2709.24, -2930.30, -3339.38, 0.000, 0.000, 0.000, 14:27:24.243
58, -2893.29, -2695.71, -2921.54, -3327.73, 0.000, 0.000, 0.000, 14:27:24.261
59, -2902.12, -2706.66, -2926.15, -3331.82, 0.000, 0.000, 0.000, 14:27:24.267
60, -2896.46, -2703.07, -2927.28, -3320.86, 0.000, 0.000, 0.000, 14:27:24.268
61, -2894.62, -2693.18, -2929.37, -3325.15, 0.000, 0.000, 0.000, 14:27:24.268
62, -2905.86, -2713.54, -2939.59, -3331.58, 0.000, 0.000, 0.000, 14:27:24.268
63, -2890.65, -2695.74, -2925.78, -3319.97, 0.000, 0.000, 0.000, 14:27:24.298
64, -2883.81, -2677.33, -2908.48, -3311.43, 0.000, 0.000, 0.000, 14:27:24.298
65, -2905.79, -2693.15, -2930.89, -3324.20, 0.000, 0.000, 0.000, 14:27:24.299
66, -2886.46, -2676.93, -2917.53, -3315.80, 0.000, 0.000, 0.000, 14:27:24.299
67, -2880.23, -2672.52, -2915.04, -3312.29, 0.000, 0.000, 0.000, 14:27:24.299
68, -2894.41, -2697.85, -2931.20, -3326.11, 0.000, 0.000, 0.000, 14:27:24.299
69, -2890.68, -2694.57, -2924.87, -3329.22, 0.000, 0.000, 0.000, 14:27:24.310
70, -2882.61, -2690.36, -2915.97, -3333.83, 0.000, 0.000, 0.000, 14:27:24.311
71, -2893.85, -2704.83, -2928.98, -3338.96, 0.000, 0.000, 0.000, 14:27:24.314
72, -2882.00, -2684.54, -2923.96, -3329.96, 0.000, 0.000, 0.000, 14:27:24.314
73, -2884.42, -2672.70, -2919.09, -3324.65, 0.000, 0.000, 0.000, 14:27:24.344
74, -2903.37, -2699.63, -2939.35, -3346.25, 0.000, 0.000, 0.000, 14:27:24.344
75, -2893.53, -2689.04, -2925.44, -3320.77, 0.000, 0.000, 0.000, 14:27:24.345
76, -2878.64, -2676.87, -2914.03, -3317.87, 0.000, 0.000, 0.000, 14:27:24.345
77, -2901.13, -2698.57, -2929.04, -3333.88, 0.000, 0.000, 0.000, 14:27:24.345
78, -2893.13, -2687.29, -2924.00, -3329.17, 0.000, 0.000, 0.000, 14:27:24.345
79, -2890.91, -2690.57, -2926.03, -3323.77, 0.000, 0.000, 0.000, 14:27:24.346
80, -2909.84, -2713.26, -2938.21, -3338.02, 0.000, 0.000, 0.000, 14:27:24.346
81, -2894.29, -2697.61, -2926.66, -3331.67, 0.000, 0.000, 0.000, 14:27:24.363
82, -2882.33, -2693.86, -2917.72, -3330.26, 0.000, 0.000, 0.000, 14:27:24.363
83, -2893.07, -2697.36, -2924.90, -3329.86, 0.000, 0.000, 0.000, 14:27:24.364
84, -2901.18, -2692.11, -2931.29, -3331.04, 0.000, 0.000, 0.000, 14:27:24.364
85, -2908.39, -2698.09, -2930.31, -3327.66, 0.000, 0.000, 0.000, 14:27:24.380
86, -2931.14, -2735.33, -2952.24, -3352.84, 0.000, 0.000, 0.000, 14:27:24.381
87, -2910.00, -2713.75, -2932.87, -3339.32, 0.000, 0.000, 0.000, 14:27:24.539
88, -2896.61, -2696.38, -2919.71, -3335.94, 0.000, 0.000, 0.000, 14:27:24.540
89, -2907.66, -2711.79, -2935.72, -3343.19, 0.000, 0.000, 0.000, 14:27:24.541
90, -2898.16, -2708.30, -2930.16, -3336.80, 0.000, 0.000, 0.000, 14:27:24.541
91, -2896.48, -2693.50, -2924.99, -3322.94, 0.000, 0.000, 0.000, 14:27:24.542
92, -2914.99, -2717.90, -2941.43, -3339.07, 0.000, 0.000, 0.000, 14:27:24.542
93, -2911.98, -2717.43, -2945.48, -3345.30, 0.000, 0.000, 0.000, 14:27:24.543
94, -2898.52, -2707.77, -2932.47, -3334.51, 0.000, 0.000, 0.000, 14:27:24.543
95, -2909.95, -2717.91, -2933.28, -3346.65, 0.000, 0.000, 0.000, 14:27:24.544
96, -2888.47, -2703.36, -2926.57, -3334.22, 0.000, 0.000, 0.000, 14:27:24.544
97, -2903.04, -2710.96, -2938.81, -3344.29, 0.000, 0.000, 0.000, 14:27:24.545
98, -2918.31, -2738.04, -2951.89, -3349.82, 0.000, 0.000, 0.000, 14:27:24.545
99, -2902.03, -2716.12, -2936.92, -3342.93, 0.000, 0.000, 0.000, 14:27:24.546
100, -2887.08, -2699.49, -2922.86, -3324.97, 0.000, 0.000, 0.000, 14:27:24.546
101, -2897.87, -2709.24, -2937.69, -3344.21, 0.000, 0.000, 0.000, 14:27:24.546
102, -2890.22, -2698.30, -2928.27, -3330.21, 0.000, 0.000, 0.000, 14:27:24.547
103, -2878.41, -2682.63, -2916.48, -3318.92, 0.000, 0.000, 0.000, 14:27:24.547
104, -2915.43, -2725.04, -2947.12, -3354.65, 0.000, 0.000, 0.000, 14:27:24.547
105, -2899.06, -2704.21, -2939.55, -3337.71, 0.000, 0.000, 0.000, 14:27:24.562
106, -2896.42, -2694.26, -2928.10, -3328.21, 0.000, 0.000, 0.000, 14:27:24.562
107, -2892.61, -2699.71, -2927.33, -3326.34, 0.000, 0.000, 0.000, 14:27:24.563
108, -2897.75, -2689.99, -2924.82, -3321.60, 0.000, 0.000, 0.000, 14:27:24.563
109, -2888.53, -2683.22, -2918.77, -3322.97, 0.000, 0.000, 0.000, 14:27:24.564
110, -2912.17, -2712.61, -2942.00, -3347.79, 0.000, 0.000, 0.000, 14:27:24.565
111, -2903.00, -2700.84, -2932.52, -3339.20, 0.000, 0.000, 0.000, 14:27:24.566
112, -2895.91, -2690.41, -2923.38, -3323.09, 0.000, 0.000, 0.000, 14:27:24.567
113, -2917.20, -2720.59, -2939.50, -3338.27, 0.000, 0.000, 0.000, 14:27:24.567
114, -2903.20, -2705.06, -2925.07, -3332.70, 0.000, 0.000, 0.000, 14:27:24.567
115, -2886.92, -2689.65, -2911.63, -3313.85, 0.000, 0.000, 0.000, 14:27:24.567
116, -2905.03, -2701.83, -2928.51, -3331.77, 0.000, 0.000, 0.000, 14:27:24.568
117, -2905.01, -2700.48, -2935.66, -3325.84, 0.000, 0.000, 0.000, 14:27:24.568
118, -2902.43, -2697.18, -2933.11, -3322.21, 0.000, 0.000, 0.000, 14:27:24.569
119, -2905.13, -2716.94, -2934.96, -3340.33, 0.000, 0.000, 0.000, 14:27:24.569
120, -2880.59, -2695.34, -2911.46, -3313.72, 0.000, 0.000, 0.000, 14:27:24.569
121, -2878.53, -2692.34, -2908.16, -3314.58, 0.000, 0.000, 0.000, 14:27:24.570
122, -2886.17, -2697.69, -2915.65, -3328.04, 0.000, 0.000, 0.000, 14:27:24.570
123, -2878.07, -2683.53, -2908.83, -3305.20, 0.000, 0.000, 0.000, 14:27:24.571
124, -2880.98, -2681.77, -2913.63, -3321.61, 0.000, 0.000, 0.000, 14:27:24.571
125, -2914.74, -2730.25, -2949.58, -3353.99, 0.000, 0.000, 0.000, 14:27:24.575
126, -2905.45, -2714.89, -2934.44, -3359.18, 0.000, 0.000, 0.000, 14:27:24.575
127, -2888.04, -2691.76, -2913.06, -3333.07, 0.000, 0.000, 0.000, 14:27:24.594
128, -2905.92, -2708.44, -2924.37, -3343.22, 0.000, 0.000, 0.000, 14:27:24.594
129, -2895.05, -2702.40, -2914.50, -3328.63, 0.000, 0.000, 0.000, 14:27:24.601
130, -2888.39, -2694.12, -2918.04, -3318.44, 0.000, 0.000, 0.000, 14:27:24.601
131, -2891.33, -2696.44, -2921.78, -3317.57, 0.000, 0.000, 0.000, 14:27:24.602
132, -2886.01, -2680.07, -2910.95, -3315.50, 0.000, 0.000, 0.000, 14:27:24.602
133, -2876.46, -2669.01, -2906.12, -3305.29, 0.000, 0.000, 0.000, 14:27:24.620
134, -2905.78, -2700.58, -2929.33, -3329.69, 0.000, 0.000, 0.000, 14:27:24.621
135, -2887.26, -2675.20, -2914.96, -3313.95, 0.000, 0.000, 0.000, 14:27:24.631
136, -2875.90, -2671.24, -2904.47, -3303.96, 0.000, 0.000, 0.000, 14:27:24.632
137, -2892.20, -2692.24, -2918.59, -3312.02, 0.000, 0.000, 0.000, 14:27:24.632
138, -2890.20, -2686.43, -2920.93, -3313.24, 0.000, 0.000, 0.000, 14:27:24.633
139, -2876.24, -2673.22, -2914.60, -3299.71, 0.000, 0.000, 0.000, 14:27:24.661
140, -2902.30, -2709.88, -2930.29, -3333.36, 0.000, 0.000, 0.000, 14:27:24.662
141, -2891.76, -2689.68, -2915.15, -3321.47, 0.000, 0.000, 0.000, 14:27:24.663
142, -2889.46, -2685.95, -2920.93, -3319.18, 0.000, 0.000, 0.000, 14:27:24.663
143, -2893.47, -2700.52, -2924.57, -3329.62, 0.000, 0.000, 0.000, 14:27:24.664
144, -2890.23, -2683.72, -2920.42, -3314.60, 0.000, 0.000, 0.000, 14:27:24.664
145, -2904.25, -2708.50, -2926.81, -3332.53, 0.000, 0.000, 0.000, 14:27:24.696
146, -2940.32, -2745.32, -2967.37, -3359.99, 0.000, 0.000, 0.000, 14:27:24.697
147, -2916.33, -2725.38, -2951.33, -3353.30, 0.000, 0.000, 0.000, 14:27:24.707
148, -2896.77, -2694.33, -2931.23, -3325.12, 0.000, 0.000, 0.000, 14:27:24.708
149, -2891.66, -2702.79, -2936.51, -3333.68, 0.000, 0.000, 0.000, 14:27:24.708
150, -2880.88, -2678.36, -2923.65, -3323.87, 0.000, 0.000, 0.000, 14:27:24.708
151, -2863.75, -2658.73, -2908.99, -3308.73, 0.000, 0.000, 0.000, 14:27:24.709
152, -2872.15, -2672.86, -2911.51, -3323.42, 0.000, 0.000, 0.000, 14:27:24.709
153, -2869.71, -2672.40, -2911.74, -3311.83, 0.000, 0.000, 0.000, 14:27:24.721
154, -2857.04, -2661.56, -2895.31, -3304.64, 0.000, 0.000, 0.000, 14:27:24.721
155, -2882.23, -2692.00, -2917.53, -3328.25, 0.000, 0.000, 0.000, 14:27:24.722
156, -2872.53, -2677.48, -2904.99, -3313.81, 0.000, 0.000, 0.000, 14:27:24.722
157, -2865.20, -2670.58, -2904.12, -3312.44, 0.000, 0.000, 0.000, 14:27:24.754
158, -2886.94, -2696.77, -2921.96, -3329.98, 0.000, 0.000, 0.000, 14:27:24.754
159, -2872.70, -2674.67, -2908.03, -3311.15, 0.000, 0.000, 0.000, 14:27:24.767
160, -2864.92, -2668.06, -2900.55, -3300.21, 0.000, 0.000, 0.000, 14:27:24.768
161, -2892.04, -2691.85, -2921.40, -3317.15, 0.000, 0.000, 0.000, 14:27:24.768
162, -2876.78, -2683.54, -2910.83, -3314.14, 0.000, 0.000, 0.000, 14:27:24.768
163, -2870.00, -2667.32, -2897.28, -3305.42, 0.000, 0.000, 0.000, 14:27:24.769
164, -2888.19, -2690.28, -2916.32, -3318.35, 0.000, 0.000, 0.000, 14:27:24.769
165, -2883.58, -2683.06, -2919.72, -3325.35, 0.000, 0.000, 0.000, 14:27:24.794
166, -2868.97, -2670.08, -2896.77, -3308.26, 0.000, 0.000, 0.000, 14:27:24.795
167, -2901.78, -2706.89, -2926.12, -3329.41, 0.000, 0.000, 0.000, 14:27:24.795
168, -2890.83, -2686.43, -2912.21, -3322.29, 0.000, 0.000, 0.000, 14:27:24.796
169, -2861.79, -2661.65, -2893.13, -3302.30, 0.000, 0.000, 0.000, 14:27:24.827
170, -2888.46, -2683.48, -2909.26, -3316.96, 0.000, 0.000, 0.000, 14:27:24.827
171, -2862.58, -2657.39, -2883.91, -3290.81, 0.000, 0.000, 0.000, 14:27:24.828
172, -2846.89, -2649.63, -2872.63, -3294.81, 0.000, 0.000, 0.000, 14:27:24.828
173, -2863.23, -2669.11, -2890.69, -3302.05, 0.000, 0.000, 0.000, 14:27:24.828
174, -2853.40, -2661.26, -2882.89, -3293.23, 0.000, 0.000, 0.000, 14:27:24.829
175, -2847.39, -2647.17, -2876.26, -3286.36, 0.000, 0.000, 0.000, 14:27:24.830
176, -2887.85, -2682.85, -2905.06, -3312.79, 0.000, 0.000, 0.000, 14:27:24.830
177, -2871.35, -2665.26, -2902.77, -3307.16, 0.000, 0.000, 0.000, 14:27:24.841
178, -2855.99, -2653.20, -2889.28, -3296.41, 0.000, 0.000, 0.000, 14:27:24.842
179, -2862.17, -2658.20, -2886.89, -3295.88, 0.000, 0.000, 0.000, 14:27:24.843
180, -2849.94, -2649.35, -2885.71, -3294.85, 0.000, 0.000, 0.000, 14:27:24.843
181, -2851.63, -2650.35, -2889.88, -3298.63, 0.000, 0.000, 0.000, 14:27:24.856
182, -2876.65, -2673.96, -2908.98, -3312.11, 0.000, 0.000, 0.000, 14:27:24.857
183, -2859.34, -2655.77, -2893.44, -3295.40, 0.000, 0.000, 0.000, 14:27:24.877
184, -2851.59, -2641.69, -2889.27, -3280.38, 0.000, 0.000, 0.000, 14:27:24.878
185, -2865.31, -2658.92, -2901.37, -3304.26, 0.000, 0.000, 0.000, 14:27:24.887
186, -2854.12, -2648.57, -2889.75, -3292.11, 0.000, 0.000, 0.000, 14:27:24.887
187, -2845.40, -2645.26, -2879.42, -3281.90, 0.000, 0.000, 0.000, 14:27:24.901
188, -2868.89, -2659.76, -2891.19, -3304.27, 0.000, 0.000, 0.000, 14:27:24.902
189, -2863.00, -2652.59, -2886.57, -3294.40, 0.000, 0.000, 0.000, 14:27:24.911
190, -2851.29, -2637.65, -2881.48, -3285.59, 0.000, 0.000, 0.000, 14:27:24.911
191, -2854.11, -2651.85, -2885.87, -3285.93, 0.000, 0.000, 0.000, 14:27:24.912
192, -2830.08, -2636.82, -2869.40, -3276.16, 0.000, 0.000, 0.000, 14:27:24.912
193, -2833.07, -2628.48, -2867.95, -3271.29, 0.000, 0.000, 0.000, 14:27:24.923
194, -2876.02, -2687.35, -2896.63, -3318.01, 0.000, 0.000, 0.000, 14:27:24.923
195, -2857.39, -2662.13, -2884.95, -3300.88, 0.000, 0.000, 0.000, 14:27:24.931
196, -2838.95, -2636.02, -2873.81, -3281.33, 0.000, 0.000, 0.000, 14:27:24.931
197, -2850.65, -2643.38, -2882.01, -3283.30, 0.000, 0.000, 0.000, 14:27:24.931
198, -2827.56, -2623.35, -2867.42, -3271.72, 0.000, 0.000, 0.000, 14:27:24.932
199, -2816.42, -2606.93, -2851.95, -3262.66, 0.000, 0.000, 0.000, 14:27:24.950
200, -2850.42, -2642.47, -2889.28, -3289.88, 0.000, 0.000, 0.000, 14:27:24.950
0, -2848.91, -2641.56, -2888.01, -3292.53, 0.000, 0.000, 0.000, 14:27:24.951
1, -2839.92, -2629.46, -2879.51, -3279.75, 0.000, 0.000, 0.000, 14:27:24.996
2, -2857.09, -2644.70, -2888.99, -3286.52, 0.000, 0.000, 0.000, 14:27:24.996
3, -2838.40, -2619.06, -2874.27, -3271.22, 0.000, 0.000, 0.000, 14:27:24.997
4, -2831.30, -2611.83, -2872.92, -3267.51, 0.000, 0.000, 0.000, 14:27:24.997
5, -2842.64, -2633.93, -2884.32, -3278.95, 0.000, 0.000, 0.000, 14:27:24.998
6, -2832.17, -2619.51, -2878.79, -3278.21, 0.000, 0.000, 0.000, 14:27:24.998
7, -2823.17, -2613.17, -2869.54, -3277.18, 0.000, 0.000, 0.000, 14:27:24.999
8, -2853.50, -2652.56, -2900.54, -3296.62, 0.000, 0.000, 0.000, 14:27:24.999
9, -2837.36, -2635.57, -2884.21, -3281.81, 0.000, 0.000, 0.000, 14:27:25.013
10, -2820.32, -2608.95, -2865.02, -3264.40, 0.000, 0.000, 0.000, 14:27:25.013
11, -2836.13, -2628.27, -2874.25, -3284.89, 0.000, 0.000, 0.000, 14:27:25.014
12, -2838.16, -2618.93, -2876.85, -3285.27, 0.000, 0.000, 0.000, 14:27:25.014
13, -2827.45, -2616.65, -2864.58, -3267.72, 0.000, 0.000, 0.000, 14:27:25.021
14, -2840.82, -2627.56, -2876.89, -3275.24, 0.000, 0.000, 0.000, 14:27:25.022
15, -2815.89, -2605.64, -2867.35, -3262.09, 0.000, 0.000, 0.000, 14:27:25.036
16, -2818.79, -2610.32, -2865.17, -3268.47, 0.000, 0.000, 0.000, 14:27:25.036
17, -2838.10, -2633.38, -2877.62, -3281.77, 0.000, 0.000, 0.000, 14:27:25.037
18, -2822.30, -2626.94, -2863.92, -3267.41, 0.000, 0.000, 0.000, 14:27:25.037
19, -2820.21, -2622.39, -2859.14, -3264.04, 0.000, 0.000, 0.000, 14:27:25.051
20, -2846.60, -2649.06, -2881.45, -3297.12, 0.000, 0.000, 0.000, 14:27:25.052
21, -2848.75, -2647.28, -2884.67, -3288.71, 0.000, 0.000, 0.000, 14:27:25.081
22, -2834.65, -2638.39, -2873.80, -3275.94, 0.000, 0.000, 0.000, 14:27:25.082
23, -2857.12, -2651.76, -2893.72, -3289.11, 0.000, 0.000, 0.000, 14:27:25.082
24, -2852.27, -2655.86, -2891.62, -3293.16, 0.000, 0.000, 0.000, 14:27:25.083
25, -2844.71, -2645.54, -2881.61, -3288.73, 0.000, 0.000, 0.000, 14:27:25.083
26, -2871.14, -2675.15, -2894.72, -3307.11, 0.000, 0.000, 0.000, 14:27:25.083
27, -2865.94, -2661.80, -2887.03, -3290.99, 0.000, 0.000, 0.000, 14:27:25.096
28, -2855.28, -2656.96, -2886.37, -3294.65, 0.000, 0.000, 0.000, 14:27:25.097
29, -2870.40, -2676.19, -2900.02, -3308.41, 0.000, 0.000, 0.000, 14:27:25.097
30, -2859.53, -2657.80, -2889.00, -3296.28, 0.000, 0.000, 0.000, 14:27:25.097
31, -2852.55, -2648.87, -2881.11, -3293.98, 0.000, 0.000, 0.000, 14:27:25.114
32, -2870.68, -2669.87, -2901.89, -3306.76, 0.000, 0.000, 0.000, 14:27:25.114
33, -2862.86, -2664.88, -2897.02, -3295.61, 0.000, 0.000, 0.000, 14:27:25.162
34, -2846.77, -2648.51, -2873.10, -3277.82, 0.000, 0.000, 0.000, 14:27:25.162
35, -2863.27, -2664.97, -2885.47, -3289.43, 0.000, 0.000, 0.000, 14:27:25.163
36, -2871.50, -2664.05, -2896.86, -3291.66, 0.000, 0.000, 0.000, 14:27:25.163
37, -2858.37, -2655.04, -2891.38, -3292.72, 0.000, 0.000, 0.000, 14:27:25.163
38, -2861.61, -2665.83, -2893.49, -3292.91, 0.000, 0.000, 0.000, 14:27:25.163
39, -2850.05, -2652.55, -2884.71, -3289.07, 0.000, 0.000, 0.000, 14:27:25.167
40, -2838.74, -2639.57, -2875.84, -3285.10, 0.000, 0.000, 0.000, 14:27:25.167
41, -2884.65, -2686.87, -2910.24, -3311.90, 0.000, 0.000, 0.000, 14:27:25.167
42, -2871.53, -2665.69, -2896.33, -3305.69, 0.000, 0.000, 0.000, 14:27:25.168
43, -2854.70, -2654.22, -2882.13, -3288.45, 0.000, 0.000, 0.000, 14:27:25.171
44, -2884.74, -2688.26, -2910.53, -3322.65, 0.000, 0.000, 0.000, 14:27:25.171
45, -2867.25, -2674.67, -2891.81, -3305.08, 0.000, 0.000, 0.000, 14:27:25.186
46, -2841.99, -2649.30, -2866.70, -3279.46, 0.000, 0.000, 0.000, 14:27:25.189
47, -2851.76, -2661.67, -2879.61, -3293.53, 0.000, 0.000, 0.000, 14:27:25.189
48, -2840.51, -2647.15, -2874.31, -3288.33, 0.000, 0.000, 0.000, 14:27:25.190
49, -2827.65, -2632.83, -2858.37, -3283.61, 0.000, 0.000, 0.000, 14:27:25.224
50, -2854.28, -2658.04, -2878.46, -3296.97, 0.000, 0.000, 0.000, 14:27:25.224
51, -2846.85, -2650.06, -2868.81, -3288.65, 0.000, 0.000, 0.000, 14:27:25.225
52, -2831.65, -2635.43, -2852.70, -3272.57, 0.000, 0.000, 0.000, 14:27:25.225
53, -2850.18, -2648.66, -2875.55, -3280.51, 0.000, 0.000, 0.000, 14:27:25.225
54, -2857.52, -2656.89, -2881.72, -3284.54, 0.000, 0.000, 0.000, 14:27:25.226
55, -2854.62, -2656.41, -2887.44, -3290.90, 0.000, 0.000, 0.000, 14:27:25.247
56, -2894.08, -2698.45, -2920.58, -3329.56, 0.000, 0.000, 0.000, 14:27:25.247
57, -2872.85, -2677.76, -2904.74, -3312.36, 0.000, 0.000, 0.000, 14:27:25.406
58, -2850.77, -2652.55, -2876.24, -3286.44, 0.000, 0.000, 0.000, 14:27:25.407
59, -2844.62, -2659.94, -2880.16, -3288.78, 0.000, 0.000, 0.000, 14:27:25.407
60, -2836.65, -2641.61, -2872.11, -3279.72, 0.000, 0.000, 0.000, 14:27:25.407
61, -2831.49, -2636.86, -2869.64, -3277.72, 0.000, 0.000, 0.000, 14:27:25.408
62, -2852.38, -2663.63, -2889.04, -3295.38, 0.000, 0.000, 0.000, 14:27:25.408
63, -2844.90, -2647.45, -2883.53, -3289.50, 0.000, 0.000, 0.000, 14:27:25.408
64, -2835.83, -2632.84, -2872.27, -3279.28, 0.000, 0.000, 0.000, 14:27:25.408
65, -2840.27, -2639.06, -2874.64, -3282.37, 0.000, 0.000, 0.000, 14:27:25.409
66, -2834.42, -2627.74, -2866.22, -3278.22, 0.000, 0.000, 0.000, 14:27:25.409
67, -2817.15, -2614.46, -2857.30, -3258.34, 0.000, 0.000, 0.000, 14:27:25.410
68, -2858.01, -2652.92, -2882.91, -3293.34, 0.000, 0.000, 0.000, 14:27:25.410
69, -2839.70, -2640.84, -2867.88, -3278.29, 0.000, 0.000, 0.000, 14:27:25.410
70, -2831.46, -2625.09, -2858.25, -3262.42, 0.000, 0.000, 0.000, 14:27:25.413
71, -2844.95, -2644.88, -2876.81, -3275.52, 0.000, 0.000, 0.000, 14:27:25.414
72, -2826.66, -2630.96, -2865.34, -3269.57, 0.000, 0.000, 0.000, 14:27:25.415
73, -2819.70, -2623.52, -2856.82, -3265.02, 0.000, 0.000, 0.000, 14:27:25.415
74, -2849.83, -2651.62, -2876.54, -3293.71, 0.000, 0.000, 0.000, 14:27:25.415
75, -2833.68, -2635.40, -2862.85, -3281.24, 0.000, 0.000, 0.000, 14:27:25.415
76, -2825.09, -2622.00, -2857.98, -3278.64, 0.000, 0.000, 0.000, 14:27:25.416
77, -2842.34, -2634.97, -2867.38, -3282.85, 0.000, 0.000, 0.000, 14:27:25.416
78, -2827.94, -2622.54, -2858.53, -3260.16, 0.000, 0.000, 0.000, 14:27:25.416
79, -2816.42, -2610.98, -2854.12, -3248.27, 0.000, 0.000, 0.000, 14:27:25.417
80, -2853.19, -2643.07, -2887.26, -3275.07, 0.000, 0.000, 0.000, 14:27:25.417
81, -2845.81, -2635.66, -2876.22, -3273.43, 0.000, 0.000, 0.000, 14:27:25.417
82, -2833.04, -2628.95, -2865.78, -3271.96, 0.000, 0.000, 0.000, 14:27:25.417
83, -2844.35, -2635.01, -2869.81, -3286.49, 0.000, 0.000, 0.000, 14:27:25.418
84, -2845.73, -2639.32, -2874.17, -3286.29, 0.000, 0.000, 0.000, 14:27:25.418
85, -2839.32, -2635.35, -2868.76, -3281.15, 0.000, 0.000, 0.000, 14:27:25.419
86, -2859.78, -2663.06, -2889.96, -3293.51, 0.000, 0.000, 0.000, 14:27:25.419
87, -2836.45, -2629.59, -2867.93, -3267.02, 0.000, 0.000, 0.000, 14:27:25.419
88, -2822.73, -2622.52, -2852.33, -3262.54, 0.000, 0.000, 0.000, 14:27:25.419
89, -2847.69, -2640.60, -2867.55, -3286.60, 0.000, 0.000, 0.000, 14:27:25.419
90, -2833.54, -2624.48, -2855.75, -3270.84, 0.000, 0.000, 0.000, 14:27:25.420
91, -2821.75, -2605.60, -2847.28, -3265.03, 0.000, 0.000, 0.000, 14:27:25.420
92, -2844.74, -2636.60, -2879.92, -3282.12, 0.000, 0.000, 0.000, 14:27:25.422
93, -2829.03, -2626.34, -2859.56, -3264.00, 0.000, 0.000, 0.000, 14:27:25.426
94, -2824.00, -2613.27, -2849.32, -3260.73, 0.000, 0.000, 0.000, 14:27:25.426
95, -2828.04, -2631.44, -2856.20, -3267.81, 0.000, 0.000, 0.000, 14:27:25.427
96, -2836.59, -2635.27, -2866.83, -3268.79, 0.000, 0.000, 0.000, 14:27:25.427
97, -2822.32, -2617.07, -2856.68, -3259.73, 0.000, 0.000, 0.000, 14:27:25.443
98, -2846.00, -2646.28, -2875.62, -3285.37, 0.000, 0.000, 0.000, 14:27:25.444
99, -2831.49, -2620.62, -2868.27, -3274.64, 0.000, 0.000, 0.000, 14:27:25.463
100, -2832.57, -2635.43, -2866.16, -3287.30, 0.000, 0.000, 0.000, 14:27:25.463
101, -2842.02, -2644.44, -2866.94, -3288.05, 0.000, 0.000, 0.000, 14:27:25.463
102, -2828.82, -2626.24, -2853.66, -3276.55, 0.000, 0.000, 0.000, 14:27:25.464
103, -2828.82, -2626.81, -2857.07, -3267.03, 0.000, 0.000, 0.000, 14:27:25.471
104, -2865.80, -2664.18, -2888.85, -3292.34, 0.000, 0.000, 0.000, 14:27:25.471
105, -2861.49, -2651.91, -2883.78, -3290.32, 0.000, 0.000, 0.000, 14:27:25.486
106, -2843.24, -2630.53, -2876.61, -3280.19, 0.000, 0.000, 0.000, 14:27:25.486
107, -2856.68, -2649.23, -2894.73, -3288.35, 0.000, 0.000, 0.000, 14:27:25.487
108, -2842.45, -2638.72, -2890.66, -3286.33, 0.000, 0.000, 0.000, 14:27:25.487
109, -2831.11, -2632.39, -2881.15, -3268.93, 0.000, 0.000, 0.000, 14:27:25.517
110, -2849.63, -2658.81, -2896.20, -3289.80, 0.000, 0.000, 0.000, 14:27:25.517
111, -2852.52, -2658.16, -2892.08, -3280.18, 0.000, 0.000, 0.000, 14:27:25.517
112, -2854.51, -2662.13, -2884.44, -3285.84, 0.000, 0.000, 0.000, 14:27:25.517
113, -2872.48, -2668.96, -2898.94, -3295.09, 0.000, 0.000, 0.000, 14:27:25.531
114, -2859.33, -2659.95, -2887.19, -3296.77, 0.000, 0.000, 0.000, 14:27:25.531
115, -2855.10, -2653.01, -2890.68, -3302.72, 0.000, 0.000, 0.000, 14:27:25.532
116, -2915.22, -2715.26, -2940.47, -3353.53, 0.000, 0.000, 0.000, 14:27:25.532
117, -2907.25, -2709.33, -2943.11, -3352.73, 0.000, 0.000, 0.000, 14:27:25.561
118, -2883.03, -2683.50, -2920.69, -3324.42, 0.000, 0.000, 0.000, 14:27:25.561
119, -2908.83, -2709.72, -2940.96, -3339.91, 0.000, 0.000, 0.000, 14:27:25.577
120, -2898.27, -2696.51, -2931.15, -3322.81, 0.000, 0.000, 0.000, 14:27:25.577
121, -2884.01, -2685.69, -2917.58, -3314.92, 0.000, 0.000, 0.000, 14:27:25.579
122, -2915.42, -2714.64, -2947.33, -3326.57, 0.000, 0.000, 0.000, 14:27:25.579
123, -2902.29, -2705.38, -2938.05, -3322.77, 0.000, 0.000, 0.000, 14:27:25.599
124, -2888.65, -2694.19, -2922.47, -3317.48, 0.000, 0.000, 0.000, 14:27:25.599
125, -2915.21, -2724.70, -2943.76, -3344.20, 0.000, 0.000, 0.000, 14:27:25.600
126, -2894.99, -2703.00, -2921.38, -3329.93, 0.000, 0.000, 0.000, 14:27:25.600
127, -2883.60, -2687.91, -2914.64, -3321.46, 0.000, 0.000, 0.000, 14:27:25.600
128, -2934.99, -2740.45, -2953.66, -3357.18, 0.000, 0.000, 0.000, 14:27:25.600
129, -2932.14, -2723.75, -2949.18, -3360.56, 0.000, 0.000, 0.000, 14:27:25.606
130, -2891.27, -2696.28, -2921.26, -3324.81, 0.000, 0.000, 0.000, 14:27:25.606
131, -2917.57, -2725.58, -2942.38, -3355.62, 0.000, 0.000, 0.000, 14:27:25.611
132, -2907.54, -2714.53, -2936.21, -3346.76, 0.000, 0.000, 0.000, 14:27:25.611
133, -2880.82, -2688.20, -2914.49, -3316.90, 0.000, 0.000, 0.000, 14:27:25.621
134, -2891.08, -2703.77, -2924.77, -3336.27, 0.000, 0.000, 0.000, 14:27:25.621
135, -2890.13, -2690.92, -2925.23, -3335.65, 0.000, 0.000, 0.000, 14:27:25.640
136, -2887.61, -2681.17, -2923.35, -3325.24, 0.000, 0.000, 0.000, 14:27:25.640
137, -2890.51, -2688.41, -2923.23, -3325.22, 0.000, 0.000, 0.000, 14:27:25.640
138, -2869.52, -2671.78, -2903.50, -3304.36, 0.000, 0.000, 0.000, 14:27:25.641
139, -2866.93, -2678.27, -2904.62, -3309.59, 0.000, 0.000, 0.000, 14:27:25.666
140, -2905.74, -2716.44, -2939.60, -3340.13, 0.000, 0.000, 0.000, 14:27:25.666
141, -2908.22, -2706.82, -2938.85, -3338.31, 0.000, 0.000, 0.000, 14:27:25.667
142, -2889.20, -2688.57, -2923.25, -3321.79, 0.000, 0.000, 0.000, 14:27:25.667
143, -2902.81, -2706.17, -2931.40, -3337.55, 0.000, 0.000, 0.000, 14:27:25.667
144, -2893.47, -2697.17, -2928.41, -3329.31, 0.000, 0.000, 0.000, 14:27:25.667
145, -2890.87, -2687.22, -2920.41, -3324.13, 0.000, 0.000, 0.000, 14:27:25.681
146, -2919.96, -2728.36, -2949.08, -3353.55, 0.000, 0.000, 0.000, 14:27:25.682
147, -2909.86, -2715.77, -2937.25, -3340.50, 0.000, 0.000, 0.000, 14:27:25.696
148, -2901.00, -2703.11, -2937.27, -3329.41, 0.000, 0.000, 0.000, 14:27:25.696
149, -2903.97, -2710.61, -2933.83, -3330.41, 0.000, 0.000, 0.000, 14:27:25.696
150, -2902.68, -2708.79, -2930.58, -3336.58, 0.000, 0.000, 0.000, 14:27:25.697
151, -2890.74, -2696.59, -2922.15, -3328.00, 0.000, 0.000, 0.000, 14:27:25.711
152, -2921.64, -2737.86, -2946.39, -3355.50, 0.000, 0.000, 0.000, 14:27:25.711
153, -2901.54, -2721.39, -2931.23, -3341.13, 0.000, 0.000, 0.000, 14:27:25.728
154, -2890.79, -2700.28, -2927.22, -3336.83, 0.000, 0.000, 0.000, 14:27:25.728
155, -2896.94, -2701.30, -2931.64, -3340.89, 0.000, 0.000, 0.000, 14:27:25.728
156, -2892.39, -2696.25, -2925.15, -3328.51, 0.000, 0.000, 0.000, 14:27:25.729
157, -2878.91, -2687.46, -2909.18, -3322.89, 0.000, 0.000, 0.000, 14:27:25.741
158, -2907.83, -2713.76, -2934.89, -3344.08, 0.000, 0.000, 0.000, 14:27:25.741
159, -2903.65, -2710.49, -2928.31, -3332.16, 0.000, 0.000, 0.000, 14:27:25.757
160, -2890.25, -2692.22, -2914.37, -3324.53, 0.000, 0.000, 0.000, 14:27:25.757
161, -2893.25, -2699.22, -2929.80, -3333.29, 0.000, 0.000, 0.000, 14:27:25.758
162, -2877.55, -2676.73, -2903.60, -3304.66, 0.000, 0.000, 0.000, 14:27:25.758
163, -2871.96, -2669.36, -2900.34, -3309.27, 0.000, 0.000, 0.000, 14:27:25.771
164, -2914.81, -2719.20, -2937.68, -3341.78, 0.000, 0.000, 0.000, 14:27:25.771
165, -2894.48, -2697.67, -2924.69, -3326.75, 0.000, 0.000, 0.000, 14:27:25.816
166, -2872.12, -2677.96, -2907.39, -3317.92, 0.000, 0.000, 0.000, 14:27:25.816
167, -2893.00, -2697.06, -2928.29, -3331.39, 0.000, 0.000, 0.000, 14:27:25.838
168, -2889.45, -2689.78, -2918.55, -3319.27, 0.000, 0.000, 0.000, 14:27:25.838
169, -2887.88, -2684.09, -2917.40, -3323.02, 0.000, 0.000, 0.000, 14:27:25.838
170, -2893.43, -2694.09, -2920.38, -3318.81, 0.000, 0.000, 0.000, 14:27:25.839
171, -2870.36, -2678.78, -2910.31, -3314.36, 0.000, 0.000, 0.000, 14:27:25.839
172, -2868.75, -2673.95, -2904.88, -3311.57, 0.000, 0.000, 0.000, 14:27:25.839
173, -2871.47, -2677.93, -2908.30, -3309.83, 0.000, 0.000, 0.000, 14:27:25.839
174, -2875.45, -2672.82, -2905.69, -3308.46, 0.000, 0.000, 0.000, 14:27:25.839
175, -2870.25, -2671.91, -2899.23, -3304.58, 0.000, 0.000, 0.000, 14:27:25.840
176, -2927.15, -2732.19, -2954.55, -3344.09, 0.000, 0.000, 0.000, 14:27:25.840
177, -2924.36, -2732.34, -2955.95, -3353.59, 0.000, 0.000, 0.000, 14:27:25.846
178, -2888.74, -2689.67, -2920.24, -3325.95, 0.000, 0.000, 0.000, 14:27:25.847
179, -2886.58, -2693.69, -2919.23, -3330.04, 0.000, 0.000, 0.000, 14:27:25.847
180, -2880.54, -2683.33, -2914.79, -3326.30, 0.000, 0.000, 0.000, 14:27:25.848
181, -2871.06, -2675.53, -2904.98, -3318.23, 0.000, 0.000, 0.000, 14:27:25.861
182, -2898.63, -2702.08, -2929.35, -3331.95, 0.000, 0.000, 0.000, 14:27:25.861
183, -2883.78, -2686.76, -2918.60, -3319.87, 0.000, 0.000, 0.000, 14:27:25.876
184, -2871.53, -2677.77, -2907.41, -3319.19, 0.000, 0.000, 0.000, 14:27:25.876
185, -2884.28, -2691.55, -2910.08, -3315.59, 0.000, 0.000, 0.000, 14:27:25.876
186, -2874.52, -2671.60, -2907.31, -3312.70, 0.000, 0.000, 0.000, 14:27:25.876
187, -2874.68, -2675.06, -2902.76, -3309.71, 0.000, 0.000, 0.000, 14:27:25.929
188, -2901.15, -2707.92, -2925.09, -3321.57, 0.000, 0.000, 0.000, 14:27:25.929
189, -2900.79, -2695.60, -2927.43, -3325.05, 0.000, 0.000, 0.000, 14:27:25.929
190, -2892.18, -2685.46, -2919.68, -3320.60, 0.000, 0.000, 0.000, 14:27:25.930
191, -2896.55, -2701.99, -2923.33, -3329.54, 0.000, 0.000, 0.000, 14:27:25.930
192, -2885.31, -2692.86, -2918.24, -3326.01, 0.000, 0.000, 0.000, 14:27:25.930
193, -2881.96, -2684.51, -2907.98, -3315.80, 0.000, 0.000, 0.000, 14:27:25.931
194, -2906.85, -2714.54, -2928.64, -3329.44, 0.000, 0.000, 0.000, 14:27:25.931
195, -2897.69, -2700.16, -2925.36, -3331.21, 0.000, 0.000, 0.000, 14:27:25.931
196, -2894.61, -2688.78, -2928.35, -3326.56, 0.000, 0.000, 0.000, 14:27:25.932
197, -2943.69, -2748.95, -2971.62, -3372.77, 0.000, 0.000, 0.000, 14:27:25.936
198, -2929.04, -2738.34, -2963.69, -3365.60, 0.000, 0.000, 0.000, 14:27:25.936
199, -2911.25, -2719.99, -2944.63, -3350.96, 0.000, 0.000, 0.000, 14:27:25.951
200, -2922.06, -2730.18, -2949.92, -3353.43, 0.000, 0.000, 0.000, 14:27:25.951
0, -2903.89, -2704.35, -2930.65, -3331.19, 0.000, 0.000, 0.000, 14:27:25.952
1, -2883.35, -2694.71, -2918.49, -3325.33, 0.000, 0.000, 0.000, 14:27:25.966
2, -2909.79, -2716.78, -2945.67, -3342.19, 0.000, 0.000, 0.000, 14:27:25.966
3, -2900.56, -2703.41, -2934.64, -3332.82, 0.000, 0.000, 0.000, 14:27:25.982
4, -2891.89, -2695.57, -2927.44, -3330.19, 0.000, 0.000, 0.000, 14:27:25.982
5, -2908.05, -2704.31, -2934.89, -3341.69, 0.000, 0.000, 0.000, 14:27:25.983
6, -2896.50, -2692.50, -2928.07, -3333.16, 0.000, 0.000, 0.000, 14:27:25.983
7, -2901.92, -2697.94, -2926.18, -3331.22, 0.000, 0.000, 0.000, 14:27:26.002
8, -2923.96, -2731.80, -2950.22, -3350.90, 0.000, 0.000, 0.000, 14:27:26.003
9, -2897.59, -2699.05, -2923.10, -3330.37, 0.000, 0.000, 0.000, 14:27:26.011
10, -2883.58, -2689.75, -2906.06, -3319.57, 0.000, 0.000, 0.000, 14:27:26.011
11, -2904.82, -2708.41, -2928.21, -3339.03, 0.000, 0.000, 0.000, 14:27:26.011
12, -2897.26, -2691.80, -2922.00, -3330.93, 0.000, 0.000, 0.000, 14:27:26.011
13, -2891.29, -2684.43, -2916.88, -3316.38, 0.000, 0.000, 0.000, 14:27:26.026
14, -2923.54, -2720.02, -2943.74, -3343.11, 0.000, 0.000, 0.000, 14:27:26.027
15, -2917.29, -2714.28, -2941.94, -3342.54, 0.000, 0.000, 0.000, 14:27:26.058
16, -2904.90, -2708.37, -2937.83, -3343.27, 0.000, 0.000, 0.000, 14:27:26.058
17, -2900.05, -2705.44, -2932.95, -3346.47, 0.000, 0.000, 0.000, 14:27:26.059
18, -2901.48, -2699.47, -2931.33, -3335.55, 0.000, 0.000, 0.000, 14:27:26.059
19, -2908.15, -2714.69, -2940.50, -3343.59, 0.000, 0.000, 0.000, 14:27:26.059
20, -2933.75, -2739.18, -2957.67, -3353.87, 0.000, 0.000, 0.000, 14:27:26.059
21, -2918.29, -2718.88, -2944.93, -3347.14, 0.000, 0.000, 0.000, 14:27:26.086
22, -2900.93, -2713.32, -2931.70, -3338.20, 0.000, 0.000, 0.000, 14:27:26.086
23, -2940.17, -2758.74, -2963.22, -3383.45, 0.000, 0.000, 0.000, 14:27:26.087
24, -2942.09, -2749.17, -2969.58, -3382.13, 0.000, 0.000, 0.000, 14:27:26.087
25, -2914.99, -2720.42, -2945.30, -3358.83, 0.000, 0.000, 0.000, 14:27:26.088
26, -2920.52, -2727.11, -2944.49, -3357.44, 0.000, 0.000, 0.000, 14:27:26.088
27, -2911.54, -2721.90, -2942.76, -3350.54, 0.000, 0.000, 0.000, 14:27:26.118
28, -2902.44, -2703.32, -2928.81, -3332.76, 0.000, 0.000, 0.000, 14:27:26.119
29, -2933.85, -2725.35, -2955.33, -3356.15, 0.000, 0.000, 0.000, 14:27:26.119
30, -2923.15, -2722.58, -2940.28, -3356.47, 0.000, 0.000, 0.000, 14:27:26.119
31, -2907.08, -2714.71, -2934.02, -3345.55, 0.000, 0.000, 0.000, 14:27:26.120
32, -2925.40, -2737.09, -2957.18, -3366.67, 0.000, 0.000, 0.000, 14:27:26.120
33, -2905.38, -2711.68, -2931.51, -3346.20, 0.000, 0.000, 0.000, 14:27:26.146
34, -2899.72, -2694.49, -2922.69, -3331.69, 0.000, 0.000, 0.000, 14:27:26.146
35, -2945.05, -2743.27, -2961.30, -3354.52, 0.000, 0.000, 0.000, 14:27:26.146
36, -2924.58, -2720.95, -2949.97, -3345.19, 0.000, 0.000, 0.000, 14:27:26.146
37, -2893.80, -2701.56, -2929.30, -3330.58, 0.000, 0.000, 0.000, 14:27:26.147
