%OpenBCI Raw EEG Data
%
%Sample Rate = 200.0 Hz
%First Column = SampleIndex
%Last Column = Timestamp 
%Other Columns = EEG data in microvolts followed by Accel Data (in G) interleaved with Aux Data
0, -15686.28, -15686.28, -15686.28, -15686.28, 0.000, 0.000, 0.000, 13:52:04.848
1, -15686.28, -15686.28, -15686.28, -15686.28, 0.000, 0.000, 0.000, 13:52:04.861
2, -15686.28, -15686.28, -15686.28, -15686.28, 0.000, 0.000, 0.000, 13:52:04.862
3, -15686.28, -15686.28, -15686.28, -15686.28, 0.000, 0.000, 0.000, 13:52:04.873
4, -15686.28, -15686.28, -15686.28, -15686.28, 0.000, 0.000, 0.000, 13:52:04.874
5, -15686.28, -15686.28, -15686.28, -15686.28, 0.000, 0.000, 0.000, 13:52:04.874
6, -15686.28, -15686.28, -15686.28, -15686.28, 0.000, 0.000, 0.000, 13:52:04.875
7, -15686.28, -15686.28, -15686.28, -15686.28, 0.000, 0.000, 0.000, 13:52:04.889
8, -15686.28, -15686.28, -15686.28, -15686.28, 0.000, 0.000, 0.000, 13:52:04.889
9, -15686.28, -15686.28, -15686.28, -15686.28, 0.000, 0.000, 0.000, 13:52:04.907
10, -15686.28, -15686.28, -15686.28, -15686.28, 0.000, 0.000, 0.000, 13:52:04.908
11, -15686.28, -15686.28, -15686.28, -15686.28, 0.000, 0.000, 0.000, 13:52:04.909
12, -15686.28, -15686.28, -15686.28, -15686.28, 0.000, 0.000, 0.000, 13:52:04.914
13, -15686.28, -15686.28, -15686.28, -15686.28, 0.000, 0.000, 0.000, 13:52:04.918
14, -15686.28, -15686.28, -15686.28, -15686.28, 0.000, 0.000, 0.000, 13:52:04.919
15, -15686.28, -15686.28, -15686.28, -15686.28, 0.000, 0.000, 0.000, 13:52:04.933
16, -15686.28, -15686.28, -15686.28, -15686.28, 0.000, 0.000, 0.000, 13:52:04.937
17, -15686.28, -15686.28, -15686.28, -15686.28, 0.000, 0.000, 0.000, 13:52:04.944
18, -15686.28, -15686.28, -15686.28, -15686.28, 0.000, 0.000, 0.000, 13:52:04.944
19, -15686.28, -15686.28, -15686.28, -15686.28, 0.000, 0.000, 0.000, 13:52:04.950
20, -15686.28, -15686.28, -15686.28, -15686.28, 0.000, 0.000, 0.000, 13:52:04.951
21, -15686.28, -15686.28, -15686.28, -15686.28, 0.000, 0.000, 0.000, 13:52:04.978
22, -15686.28, -15686.28, -15686.28, -15686.28, 0.000, 0.000, 0.000, 13:52:04.979
23, -15686.28, -15686.28, -15686.28, -15686.28, 0.000, 0.000, 0.000, 13:52:04.980
24, -15686.28, -15686.28, -15686.28, -15686.28, 0.000, 0.000, 0.000, 13:52:04.981
25, -15686.28, -15686.28, -15686.28, -15686.28, 0.000, 0.000, 0.000, 13:52:04.981
26, -15686.28, -15686.28, -15686.28, -15686.28, 0.000, 0.000, 0.000, 13:52:04.982
27, -15686.28, -15686.28, -15686.28, -15686.28, 0.000, 0.000, 0.000, 13:52:05.046
28, -15686.28, -15686.28, -15686.28, -15686.28, 0.000, 0.000, 0.000, 13:52:05.047
29, -15686.28, -15686.28, -15686.28, -15686.28, 0.000, 0.000, 0.000, 13:52:05.047
30, -15686.28, -15686.28, -15686.28, -15686.28, 0.000, 0.000, 0.000, 13:52:05.047
31, -15686.28, -15686.28, -15686.28, -15686.28, 0.000, 0.000, 0.000, 13:52:05.047
32, -15686.28, -15686.28, -15686.28, -15686.28, 0.000, 0.000, 0.000, 13:52:05.048
33, -15686.28, -15686.28, -15686.28, -15686.28, 0.000, 0.000, 0.000, 13:52:05.224
34, -15686.28, -15686.28, -15686.28, -15686.28, 0.000, 0.000, 0.000, 13:52:05.224
35, -15686.28, -15686.28, -15686.28, -15686.28, 0.000, 0.000, 0.000, 13:52:05.225
36, -15686.28, -15686.28, -15686.28, -15686.28, 0.000, 0.000, 0.000, 13:52:05.225
37, -15686.28, -15686.28, -15686.28, -15686.28, 0.000, 0.000, 0.000, 13:52:05.226
38, -15686.28, -15622.30, -15686.28, -15686.28, 0.000, 0.000, 0.000, 13:52:05.227
39, -15679.51, -14667.23, -15170.94, -15686.28, 0.000, 0.000, 0.000, 13:52:05.284
40, -14905.55, -14486.09, -14987.19, -15650.32, 0.000, 0.000, 0.000, 13:52:05.285
41, -14721.29, -14425.36, -14862.24, -14741.01, 0.000, 0.000, 0.000, 13:52:05.311
42, -14682.71, -13512.31, -13907.09, -14645.08, 0.000, 0.000, 0.000, 13:52:05.311
43, -13761.13, -12674.64, -13042.18, -14632.91, 0.000, 0.000, 0.000, 13:52:05.312
44, -12952.35, -11929.93, -12274.54, -13785.23, 0.000, 0.000, 0.000, 13:52:05.312
45, -12213.95, -11286.38, -11591.25, -12988.02, 0.000, 0.000, 0.000, 13:52:05.398
46, -11558.93, -10718.21, -10985.27, -12304.91, 0.000, 0.000, 0.000, 13:52:05.399
47, -10976.63, -10180.46, -10440.43, -11675.21, 0.000, 0.000, 0.000, 13:52:05.400
48, -10453.22, -9719.72, -9980.73, -11136.18, 0.000, 0.000, 0.000, 13:52:05.400
49, -9990.86, -9315.44, -9539.79, -10637.80, 0.000, 0.000, 0.000, 13:52:05.403
50, -9582.66, -8943.61, -9164.71, -10218.40, 0.000, 0.000, 0.000, 13:52:05.404
51, -9210.21, -8632.90, -8816.22, -9818.34, 0.000, 0.000, 0.000, 13:52:05.443
52, -8884.46, -8353.96, -8536.47, -9459.87, 0.000, 0.000, 0.000, 13:52:05.443
53, -8582.96, -8078.53, -8227.95, -9139.75, 0.000, 0.000, 0.000, 13:52:05.445
54, -8316.32, -7840.23, -8013.09, -8877.18, 0.000, 0.000, 0.000, 13:52:05.446
55, -8078.20, -7615.42, -7795.60, -8609.47, 0.000, 0.000, 0.000, 13:52:05.447
56, -7859.06, -7439.29, -7587.94, -8373.10, 0.000, 0.000, 0.000, 13:52:05.447
57, -7667.37, -7278.71, -7412.88, -8164.50, 0.000, 0.000, 0.000, 13:52:05.449
58, -7482.82, -7122.86, -7245.63, -7972.60, 0.000, 0.000, 0.000, 13:52:05.449
59, -7325.47, -6992.59, -7106.13, -7802.74, 0.000, 0.000, 0.000, 13:52:05.451
60, -7176.71, -6865.46, -6964.83, -7649.59, 0.000, 0.000, 0.000, 13:52:05.451
61, -7047.18, -6746.17, -6855.00, -7502.92, 0.000, 0.000, 0.000, 13:52:05.452
62, -6938.10, -6650.19, -6732.32, -7376.11, 0.000, 0.000, 0.000, 13:52:05.452
63, -6828.59, -6558.70, -6649.21, -7256.26, 0.000, 0.000, 0.000, 13:52:05.525
64, -6733.21, -6470.06, -6569.87, -7153.14, 0.000, 0.000, 0.000, 13:52:05.530
65, -6633.55, -6393.82, -6464.02, -7062.69, 0.000, 0.000, 0.000, 13:52:05.532
66, -6552.69, -6322.65, -6404.24, -6960.86, 0.000, 0.000, 0.000, 13:52:05.532
67, -6476.71, -6273.09, -6329.46, -6895.17, 0.000, 0.000, 0.000, 13:52:05.534
68, -6407.13, -6202.25, -6251.56, -6812.64, 0.000, 0.000, 0.000, 13:52:05.534
69, -6353.55, -6149.05, -6218.38, -6758.08, 0.000, 0.000, 0.000, 13:52:05.535
70, -6286.64, -6108.28, -6137.86, -6695.59, 0.000, 0.000, 0.000, 13:52:05.536
71, -6227.82, -6052.12, -6095.95, -6640.70, 0.000, 0.000, 0.000, 13:52:05.541
72, -6176.37, -5997.42, -6043.02, -6579.70, 0.000, 0.000, 0.000, 13:52:05.553
73, -6131.84, -5975.51, -5994.35, -6539.24, 0.000, 0.000, 0.000, 13:52:05.553
74, -6086.54, -5936.22, -5957.27, -6487.67, 0.000, 0.000, 0.000, 13:52:05.554
75, -6056.52, -5896.63, -5938.33, -6468.17, 0.000, 0.000, 0.000, 13:52:05.556
76, -6023.63, -5882.21, -5918.78, -6425.78, 0.000, 0.000, 0.000, 13:52:05.568
77, -5989.15, -5855.54, -5876.50, -6383.73, 0.000, 0.000, 0.000, 13:52:05.570
78, -5965.00, -5824.79, -5848.26, -6342.18, 0.000, 0.000, 0.000, 13:52:05.571
79, -5924.92, -5791.67, -5810.22, -6311.02, 0.000, 0.000, 0.000, 13:52:05.571
80, -5887.62, -5765.90, -5790.75, -6280.31, 0.000, 0.000, 0.000, 13:52:05.572
81, -5862.19, -5734.66, -5755.74, -6255.75, 0.000, 0.000, 0.000, 13:52:05.575
82, -5845.00, -5724.09, -5749.51, -6237.20, 0.000, 0.000, 0.000, 13:52:05.575
83, -5814.64, -5691.97, -5724.04, -6195.45, 0.000, 0.000, 0.000, 13:52:05.575
84, -5806.55, -5689.50, -5714.54, -6191.10, 0.000, 0.000, 0.000, 13:52:05.575
85, -5788.85, -5677.25, -5692.49, -6175.21, 0.000, 0.000, 0.000, 13:52:05.576
86, -5780.21, -5665.79, -5679.24, -6167.65, 0.000, 0.000, 0.000, 13:52:05.576
87, -5760.45, -5650.20, -5659.69, -6149.21, 0.000, 0.000, 0.000, 13:52:05.576
88, -5741.68, -5636.46, -5640.68, -6120.80, 0.000, 0.000, 0.000, 13:52:05.577
89, -5725.17, -5624.77, -5623.46, -6109.35, 0.000, 0.000, 0.000, 13:52:05.577
90, -5713.42, -5596.95, -5616.56, -6083.51, 0.000, 0.000, 0.000, 13:52:05.577
91, -5699.36, -5590.59, -5606.06, -6075.79, 0.000, 0.000, 0.000, 13:52:05.577
92, -5695.82, -5596.89, -5596.33, -6092.15, 0.000, 0.000, 0.000, 13:52:05.578
93, -5671.37, -5576.48, -5586.57, -6061.07, 0.000, 0.000, 0.000, 13:52:05.592
94, -5682.26, -5575.72, -5584.26, -6063.88, 0.000, 0.000, 0.000, 13:52:05.592
95, -5655.76, -5544.23, -5566.18, -5995.47, 0.000, 0.000, 0.000, 13:52:05.594
96, -5656.39, -5565.22, -5567.89, -6043.97, 0.000, 0.000, 0.000, 13:52:05.603
97, -5655.85, -5575.19, -5566.80, -6042.61, 0.000, 0.000, 0.000, 13:52:05.603
98, -5639.94, -5554.78, -5558.57, -6029.45, 0.000, 0.000, 0.000, 13:52:05.607
99, -5631.23, -5536.79, -5528.98, -6003.10, 0.000, 0.000, 0.000, 13:52:05.612
100, -5611.88, -5518.76, -5512.68, -5980.17, 0.000, 0.000, 0.000, 13:52:05.612
101, -5620.68, -5521.17, -5534.80, -5997.33, 0.000, 0.000, 0.000, 13:52:05.612
102, -5619.23, -5518.60, -5540.57, -5996.50, 0.000, 0.000, 0.000, 13:52:05.614
103, -5602.23, -5509.04, -5515.14, -5967.22, 0.000, 0.000, 0.000, 13:52:05.614
104, -5603.69, -5505.42, -5515.82, -5968.82, 0.000, 0.000, 0.000, 13:52:05.614
105, -5580.58, -5476.93, -5489.68, -5945.18, 0.000, 0.000, 0.000, 13:52:05.615
106, -5564.93, -5455.50, -5470.21, -5914.57, 0.000, 0.000, 0.000, 13:52:05.615
107, -5580.09, -5475.96, -5489.54, -5941.93, 0.000, 0.000, 0.000, 13:52:05.618
108, -5563.43, -5469.52, -5484.12, -5929.64, 0.000, 0.000, 0.000, 13:52:05.618
109, -5567.74, -5482.28, -5494.17, -5943.93, 0.000, 0.000, 0.000, 13:52:05.618
110, -5566.17, -5484.50, -5489.12, -5955.19, 0.000, 0.000, 0.000, 13:52:05.619
111, -5551.36, -5459.76, -5473.09, -5935.83, 0.000, 0.000, 0.000, 13:52:05.619
112, -5560.92, -5476.44, -5477.00, -5943.72, 0.000, 0.000, 0.000, 13:52:05.619
113, -5538.66, -5443.17, -5465.86, -5898.07, 0.000, 0.000, 0.000, 13:52:05.619
114, -5554.62, -5474.98, -5467.62, -5933.13, 0.000, 0.000, 0.000, 13:52:05.619
115, -5536.14, -5445.62, -5448.68, -5911.67, 0.000, 0.000, 0.000, 13:52:05.620
116, -5522.09, -5425.80, -5435.94, -5883.63, 0.000, 0.000, 0.000, 13:52:05.620
117, -5523.62, -5429.84, -5436.29, -5876.82, 0.000, 0.000, 0.000, 13:52:05.620
118, -5509.60, -5422.60, -5423.61, -5874.44, 0.000, 0.000, 0.000, 13:52:05.620
119, -5532.32, -5447.16, -5457.97, -5905.35, 0.000, 0.000, 0.000, 13:52:05.620
120, -5522.88, -5427.87, -5443.68, -5886.61, 0.000, 0.000, 0.000, 13:52:05.621
121, -5523.64, -5426.84, -5430.17, -5888.58, 0.000, 0.000, 0.000, 13:52:05.621
122, -5533.53, -5449.94, -5444.49, -5905.35, 0.000, 0.000, 0.000, 13:52:05.621
123, -5502.94, -5411.40, -5422.48, -5871.35, 0.000, 0.000, 0.000, 13:52:05.622
124, -5498.25, -5409.90, -5405.66, -5881.49, 0.000, 0.000, 0.000, 13:52:05.622
125, -5495.75, -5409.91, -5412.13, -5876.58, 0.000, 0.000, 0.000, 13:52:05.622
126, -5482.50, -5403.04, -5407.06, -5864.03, 0.000, 0.000, 0.000, 13:52:05.623
127, -5491.57, -5407.43, -5419.56, -5862.82, 0.000, 0.000, 0.000, 13:52:05.624
128, -5486.25, -5397.11, -5414.95, -5868.64, 0.000, 0.000, 0.000, 13:52:05.625
129, -5486.91, -5392.60, -5403.45, -5832.40, 0.000, 0.000, 0.000, 13:52:05.626
130, -5485.34, -5402.10, -5390.21, -5861.99, 0.000, 0.000, 0.000, 13:52:05.627
131, -5472.32, -5376.34, -5390.73, -5845.41, 0.000, 0.000, 0.000, 13:52:05.627
132, -5480.75, -5391.98, -5396.65, -5855.18, 0.000, 0.000, 0.000, 13:52:05.627
133, -5472.25, -5377.29, -5393.80, -5841.34, 0.000, 0.000, 0.000, 13:52:05.627
134, -5462.29, -5369.50, -5381.27, -5831.27, 0.000, 0.000, 0.000, 13:52:05.627
135, -5458.74, -5378.01, -5379.11, -5828.40, 0.000, 0.000, 0.000, 13:52:05.628
136, -5463.25, -5372.87, -5379.48, -5818.67, 0.000, 0.000, 0.000, 13:52:05.628
137, -5480.76, -5390.76, -5397.83, -5860.48, 0.000, 0.000, 0.000, 13:52:05.628
138, -5471.02, -5393.40, -5391.12, -5849.45, 0.000, 0.000, 0.000, 13:52:05.628
139, -5474.90, -5388.52, -5400.35, -5856.00, 0.000, 0.000, 0.000, 13:52:05.629
140, -5470.93, -5389.47, -5398.96, -5851.88, 0.000, 0.000, 0.000, 13:52:05.629
141, -5473.26, -5382.95, -5400.23, -5838.12, 0.000, 0.000, 0.000, 13:52:05.629
142, -5471.24, -5381.76, -5387.94, -5842.67, 0.000, 0.000, 0.000, 13:52:05.629
143, -5468.86, -5376.09, -5394.33, -5840.24, 0.000, 0.000, 0.000, 13:52:05.629
144, -5461.24, -5368.67, -5391.01, -5815.63, 0.000, 0.000, 0.000, 13:52:05.630
145, -5461.78, -5376.52, -5391.19, -5831.45, 0.000, 0.000, 0.000, 13:52:05.630
146, -5462.77, -5367.14, -5377.94, -5833.52, 0.000, 0.000, 0.000, 13:52:05.630
147, -5443.28, -5353.74, -5363.93, -5808.97, 0.000, 0.000, 0.000, 13:52:05.630
148, -5447.79, -5355.75, -5369.60, -5826.32, 0.000, 0.000, 0.000, 13:52:05.630
149, -5440.01, -5352.66, -5354.78, -5807.95, 0.000, 0.000, 0.000, 13:52:05.649
150, -5429.82, -5349.65, -5350.30, -5806.05, 0.000, 0.000, 0.000, 13:52:05.650
151, -5419.31, -5334.08, -5338.66, -5798.55, 0.000, 0.000, 0.000, 13:52:05.650
152, -5425.06, -5344.68, -5344.97, -5798.46, 0.000, 0.000, 0.000, 13:52:05.650
153, -5425.38, -5346.22, -5336.34, -5796.32, 0.000, 0.000, 0.000, 13:52:05.650
154, -5430.29, -5345.77, -5333.45, -5789.68, 0.000, 0.000, 0.000, 13:52:05.650
155, -5426.60, -5348.73, -5349.09, -5801.68, 0.000, 0.000, 0.000, 13:52:05.651
156, -5427.81, -5341.77, -5351.31, -5786.17, 0.000, 0.000, 0.000, 13:52:05.651
157, -5446.51, -5365.98, -5358.45, -5810.18, 0.000, 0.000, 0.000, 13:52:05.651
158, -5433.98, -5350.02, -5348.20, -5793.97, 0.000, 0.000, 0.000, 13:52:05.651
159, -5443.39, -5353.54, -5348.63, -5798.36, 0.000, 0.000, 0.000, 13:52:05.664
160, -5433.86, -5345.99, -5356.27, -5799.00, 0.000, 0.000, 0.000, 13:52:05.667
161, -5428.41, -5346.50, -5349.30, -5794.52, 0.000, 0.000, 0.000, 13:52:05.701
162, -5431.19, -5344.16, -5348.79, -5791.48, 0.000, 0.000, 0.000, 13:52:05.701
163, -5432.44, -5339.85, -5347.13, -5790.40, 0.000, 0.000, 0.000, 13:52:05.701
164, -5427.60, -5334.91, -5348.49, -5785.14, 0.000, 0.000, 0.000, 13:52:05.702
165, -5438.20, -5342.02, -5357.58, -5795.09, 0.000, 0.000, 0.000, 13:52:05.702
166, -5426.50, -5326.25, -5339.71, -5773.74, 0.000, 0.000, 0.000, 13:52:05.702
167, -5441.61, -5340.29, -5336.50, -5784.62, 0.000, 0.000, 0.000, 13:52:05.703
168, -5435.56, -5343.12, -5344.15, -5789.57, 0.000, 0.000, 0.000, 13:52:05.703
169, -5431.20, -5345.81, -5340.49, -5797.13, 0.000, 0.000, 0.000, 13:52:05.703
170, -5424.47, -5352.07, -5345.87, -5805.82, 0.000, 0.000, 0.000, 13:52:05.703
171, -5419.74, -5346.89, -5339.23, -5804.64, 0.000, 0.000, 0.000, 13:52:05.713
172, -5410.54, -5335.44, -5329.08, -5799.64, 0.000, 0.000, 0.000, 13:52:05.713
173, -5408.29, -5336.72, -5325.34, -5777.55, 0.000, 0.000, 0.000, 13:52:05.714
174, -5409.77, -5332.98, -5329.09, -5793.21, 0.000, 0.000, 0.000, 13:52:05.714
175, -5416.54, -5335.83, -5335.28, -5774.00, 0.000, 0.000, 0.000, 13:52:05.759
176, -5413.19, -5333.02, -5332.15, -5767.48, 0.000, 0.000, 0.000, 13:52:05.760
177, -5411.71, -5318.76, -5325.99, -5754.98, 0.000, 0.000, 0.000, 13:52:05.780
178, -5410.48, -5323.99, -5325.31, -5761.03, 0.000, 0.000, 0.000, 13:52:05.780
179, -5406.67, -5322.74, -5331.28, -5761.36, 0.000, 0.000, 0.000, 13:52:05.780
180, -5406.64, -5329.18, -5324.50, -5762.43, 0.000, 0.000, 0.000, 13:52:05.781
181, -5403.26, -5318.29, -5323.66, -5748.41, 0.000, 0.000, 0.000, 13:52:05.805
182, -5402.20, -5319.65, -5327.72, -5771.46, 0.000, 0.000, 0.000, 13:52:05.806
183, -5392.26, -5314.75, -5317.89, -5760.98, 0.000, 0.000, 0.000, 13:52:05.807
184, -5398.75, -5319.82, -5319.27, -5772.90, 0.000, 0.000, 0.000, 13:52:05.808
185, -5400.69, -5316.68, -5320.05, -5771.11, 0.000, 0.000, 0.000, 13:52:05.809
186, -5403.54, -5323.91, -5320.18, -5779.36, 0.000, 0.000, 0.000, 13:52:05.810
187, -5401.80, -5319.85, -5318.74, -5781.48, 0.000, 0.000, 0.000, 13:52:05.810
188, -5398.78, -5316.53, -5320.27, -5764.21, 0.000, 0.000, 0.000, 13:52:05.811
189, -5386.55, -5308.24, -5313.40, -5767.84, 0.000, 0.000, 0.000, 13:52:05.812
190, -5393.19, -5311.51, -5309.58, -5770.14, 0.000, 0.000, 0.000, 13:52:05.812
191, -5409.02, -5325.61, -5323.49, -5785.35, 0.000, 0.000, 0.000, 13:52:05.813
192, -5405.12, -5318.42, -5316.51, -5784.79, 0.000, 0.000, 0.000, 13:52:05.813
193, -5403.36, -5331.60, -5316.47, -5770.64, 0.000, 0.000, 0.000, 13:52:05.865
194, -5401.35, -5320.55, -5312.29, -5762.86, 0.000, 0.000, 0.000, 13:52:05.866
195, -5400.08, -5312.48, -5312.57, -5756.87, 0.000, 0.000, 0.000, 13:52:05.867
196, -5397.24, -5317.55, -5322.18, -5754.30, 0.000, 0.000, 0.000, 13:52:05.880
197, -5391.79, -5306.53, -5314.10, -5739.80, 0.000, 0.000, 0.000, 13:52:05.881
198, -5392.92, -5308.48, -5314.96, -5737.61, 0.000, 0.000, 0.000, 13:52:05.882
199, -5402.03, -5312.30, -5326.34, -5744.64, 0.000, 0.000, 0.000, 13:52:05.883
200, -5406.01, -5311.12, -5315.50, -5743.30, 0.000, 0.000, 0.000, 13:52:05.884
0, -3437.79, -3346.28, -3360.05, -3782.65, 0.000, 0.000, 0.000, 13:52:05.885
1, -3433.13, -3331.90, -3350.47, -3777.73, 0.000, 0.000, 0.000, 13:52:05.885
2, -3431.08, -3337.43, -3345.31, -3768.75, 0.000, 0.000, 0.000, 13:52:05.885
3, -3439.21, -3352.53, -3351.60, -3783.79, 0.000, 0.000, 0.000, 13:52:05.886
4, -3435.40, -3352.40, -3353.65, -3790.83, 0.000, 0.000, 0.000, 13:52:05.886
5, -3440.29, -3353.50, -3352.92, -3797.58, 0.000, 0.000, 0.000, 13:52:05.886
6, -3438.97, -3352.60, -3352.54, -3797.50, 0.000, 0.000, 0.000, 13:52:05.887
7, -3431.21, -3344.30, -3340.94, -3791.32, 0.000, 0.000, 0.000, 13:52:05.923
8, -3438.17, -3344.11, -3353.86, -3789.57, 0.000, 0.000, 0.000, 13:52:05.923
9, -3433.35, -3346.24, -3355.71, -3800.72, 0.000, 0.000, 0.000, 13:52:05.923
10, -3426.19, -3334.72, -3336.05, -3786.24, 0.000, 0.000, 0.000, 13:52:05.923
11, -3418.24, -3326.11, -3341.44, -3773.19, 0.000, 0.000, 0.000, 13:52:05.923
12, -3411.51, -3324.77, -3345.88, -3772.86, 0.000, 0.000, 0.000, 13:52:05.924
13, -3426.97, -3332.05, -3326.25, -3772.80, 0.000, 0.000, 0.000, 13:52:05.924
14, -3424.24, -3341.56, -3355.08, -3773.37, 0.000, 0.000, 0.000, 13:52:05.924
15, -3421.77, -3332.48, -3343.22, -3774.26, 0.000, 0.000, 0.000, 13:52:05.939
16, -3419.04, -3326.16, -3329.48, -3767.33, 0.000, 0.000, 0.000, 13:52:05.940
17, -3409.59, -3325.31, -3324.78, -3760.50, 0.000, 0.000, 0.000, 13:52:05.940
18, -3405.98, -3318.37, -3329.61, -3760.39, 0.000, 0.000, 0.000, 13:52:05.940
19, -3412.36, -3332.12, -3333.93, -3766.27, 0.000, 0.000, 0.000, 13:52:05.954
20, -3414.49, -3336.88, -3338.37, -3760.03, 0.000, 0.000, 0.000, 13:52:05.954
21, -3409.54, -3326.42, -3339.18, -3773.92, 0.000, 0.000, 0.000, 13:52:05.992
22, -3414.47, -3323.11, -3333.88, -3770.94, 0.000, 0.000, 0.000, 13:52:05.992
23, -3404.48, -3324.57, -3329.54, -3769.81, 0.000, 0.000, 0.000, 13:52:05.992
24, -3399.65, -3320.13, -3320.02, -3759.91, 0.000, 0.000, 0.000, 13:52:05.992
25, -3405.22, -3325.01, -3331.41, -3774.92, 0.000, 0.000, 0.000, 13:52:06.070
26, -3405.18, -3321.03, -3334.34, -3778.38, 0.000, 0.000, 0.000, 13:52:06.071
27, -3395.39, -3316.16, -3320.54, -3765.18, 0.000, 0.000, 0.000, 13:52:06.071
28, -3407.69, -3323.81, -3330.06, -3772.26, 0.000, 0.000, 0.000, 13:52:06.072
29, -3403.94, -3324.13, -3331.53, -3770.02, 0.000, 0.000, 0.000, 13:52:06.073
30, -3407.63, -3322.73, -3327.81, -3766.11, 0.000, 0.000, 0.000, 13:52:06.075
31, -3404.57, -3323.63, -3334.82, -3767.66, 0.000, 0.000, 0.000, 13:52:06.162
32, -3399.70, -3324.20, -3326.06, -3775.18, 0.000, 0.000, 0.000, 13:52:06.162
33, -3400.40, -3321.52, -3328.59, -3772.18, 0.000, 0.000, 0.000, 13:52:06.165
34, -3406.49, -3322.29, -3320.64, -3774.23, 0.000, 0.000, 0.000, 13:52:06.165
35, -3413.28, -3330.43, -3339.48, -3778.16, 0.000, 0.000, 0.000, 13:52:06.166
36, -3411.45, -3326.52, -3330.43, -3764.34, 0.000, 0.000, 0.000, 13:52:06.166
37, -3409.61, -3327.64, -3329.77, -3760.20, 0.000, 0.000, 0.000, 13:52:06.167
38, -3404.73, -3316.82, -3337.71, -3773.83, 0.000, 0.000, 0.000, 13:52:06.167
39, -3398.40, -3316.44, -3326.09, -3775.80, 0.000, 0.000, 0.000, 13:52:06.168
40, -3396.40, -3315.91, -3323.35, -3770.79, 0.000, 0.000, 0.000, 13:52:06.168
41, -3405.49, -3328.74, -3319.96, -3780.03, 0.000, 0.000, 0.000, 13:52:06.169
42, -3395.97, -3318.33, -3321.68, -3775.25, 0.000, 0.000, 0.000, 13:52:06.170
43, -3401.12, -3313.97, -3322.10, -3758.21, 0.000, 0.000, 0.000, 13:52:06.224
44, -3394.63, -3314.35, -3315.25, -3762.09, 0.000, 0.000, 0.000, 13:52:06.224
45, -3392.04, -3315.18, -3312.99, -3766.97, 0.000, 0.000, 0.000, 13:52:06.225
46, -3390.00, -3304.62, -3319.89, -3761.63, 0.000, 0.000, 0.000, 13:52:06.225
47, -3395.77, -3318.23, -3324.54, -3764.55, 0.000, 0.000, 0.000, 13:52:06.226
48, -3401.86, -3316.59, -3333.14, -3764.36, 0.000, 0.000, 0.000, 13:52:06.232
49, -3399.18, -3318.53, -3322.88, -3762.60, 0.000, 0.000, 0.000, 13:52:06.419
50, -3408.76, -3322.41, -3329.33, -3771.53, 0.000, 0.000, 0.000, 13:52:06.420
51, -3392.55, -3301.39, -3310.19, -3754.50, 0.000, 0.000, 0.000, 13:52:06.432
52, -3394.39, -3309.95, -3315.86, -3760.49, 0.000, 0.000, 0.000, 13:52:06.433
53, -3400.82, -3309.76, -3323.63, -3756.31, 0.000, 0.000, 0.000, 13:52:06.433
54, -3392.88, -3314.36, -3325.12, -3761.30, 0.000, 0.000, 0.000, 13:52:06.440
55, -3398.13, -3311.48, -3326.71, -3758.93, 0.000, 0.000, 0.000, 13:52:06.708
56, -3395.45, -3308.65, -3326.93, -3750.16, 0.000, 0.000, 0.000, 13:52:06.709
57, -3399.16, -3309.23, -3317.67, -3743.61, 0.000, 0.000, 0.000, 13:52:06.709
58, -3400.90, -3309.83, -3321.60, -3757.80, 0.000, 0.000, 0.000, 13:52:06.709
59, -3396.04, -3303.46, -3313.24, -3750.93, 0.000, 0.000, 0.000, 13:52:06.710
60, -3398.36, -3309.78, -3322.77, -3759.36, 0.000, 0.000, 0.000, 13:52:06.710
61, -3393.04, -3300.12, -3310.26, -3756.84, 0.000, 0.000, 0.000, 13:52:06.710
62, -3389.92, -3302.28, -3316.98, -3752.74, 0.000, 0.000, 0.000, 13:52:06.711
63, -3391.59, -3309.10, -3322.76, -3760.35, 0.000, 0.000, 0.000, 13:52:06.728
64, -3398.94, -3315.82, -3317.44, -3749.23, 0.000, 0.000, 0.000, 13:52:06.728
65, -3401.90, -3315.03, -3323.77, -3757.27, 0.000, 0.000, 0.000, 13:52:06.798
66, -3395.05, -3310.36, -3314.39, -3757.89, 0.000, 0.000, 0.000, 13:52:06.799
67, -3390.55, -3304.47, -3315.51, -3749.08, 0.000, 0.000, 0.000, 13:52:06.799
68, -3394.48, -3321.70, -3314.98, -3754.95, 0.000, 0.000, 0.000, 13:52:06.800
69, -3402.21, -3317.14, -3323.70, -3760.05, 0.000, 0.000, 0.000, 13:52:06.800
70, -3400.77, -3307.87, -3314.98, -3763.36, 0.000, 0.000, 0.000, 13:52:06.800
71, -3387.90, -3299.83, -3311.74, -3753.50, 0.000, 0.000, 0.000, 13:52:07.369
72, -3399.94, -3306.68, -3317.61, -3748.55, 0.000, 0.000, 0.000, 13:52:07.369
73, -3394.49, -3311.89, -3313.72, -3761.82, 0.000, 0.000, 0.000, 13:52:07.370
74, -3388.08, -3306.83, -3312.48, -3751.03, 0.000, 0.000, 0.000, 13:52:07.370
75, -3386.18, -3306.17, -3307.83, -3759.77, 0.000, 0.000, 0.000, 13:52:07.370
76, -3400.50, -3315.83, -3324.95, -3755.04, 0.000, 0.000, 0.000, 13:52:07.402
77, -3402.50, -3318.14, -3322.13, -3764.13, 0.000, 0.000, 0.000, 13:52:07.445
78, -3404.32, -3316.20, -3319.85, -3755.33, 0.000, 0.000, 0.000, 13:52:07.446
79, -3409.25, -3312.97, -3319.79, -3753.94, 0.000, 0.000, 0.000, 13:52:07.447
80, -3405.45, -3322.96, -3335.93, -3756.34, 0.000, 0.000, 0.000, 13:52:07.447
81, -3404.30, -3313.90, -3321.46, -3758.57, 0.000, 0.000, 0.000, 13:52:07.448
82, -3392.67, -3306.41, -3312.37, -3761.28, 0.000, 0.000, 0.000, 13:52:07.449
83, -3393.98, -3309.59, -3307.77, -3752.21, 0.000, 0.000, 0.000, 13:52:07.451
84, -3399.16, -3314.23, -3305.62, -3749.09, 0.000, 0.000, 0.000, 13:52:07.452
85, -3398.35, -3310.09, -3318.93, -3756.95, 0.000, 0.000, 0.000, 13:52:07.453
86, -3406.47, -3306.84, -3314.54, -3758.29, 0.000, 0.000, 0.000, 13:52:07.484
87, -3390.18, -3314.97, -3311.09, -3743.03, 0.000, 0.000, 0.000, 13:52:07.487
88, -3393.64, -3315.00, -3312.74, -3747.81, 0.000, 0.000, 0.000, 13:52:07.487
89, -3395.22, -3308.85, -3305.32, -3754.06, 0.000, 0.000, 0.000, 13:52:07.488
90, -3392.26, -3311.98, -3306.04, -3743.41, 0.000, 0.000, 0.000, 13:52:07.488
91, -3388.83, -3310.08, -3311.11, -3750.57, 0.000, 0.000, 0.000, 13:52:07.668
92, -3385.46, -3305.77, -3313.56, -3747.13, 0.000, 0.000, 0.000, 13:52:07.668
93, -3389.48, -3311.33, -3303.49, -3749.19, 0.000, 0.000, 0.000, 13:52:07.668
94, -3393.31, -3311.14, -3306.99, -3747.01, 0.000, 0.000, 0.000, 13:52:07.668
95, -3391.18, -3309.17, -3317.86, -3746.85, 0.000, 0.000, 0.000, 13:52:07.669
96, -3392.77, -3310.62, -3307.18, -3748.60, 0.000, 0.000, 0.000, 13:52:07.669
97, -3404.36, -3316.64, -3326.65, -3760.02, 0.000, 0.000, 0.000, 13:52:08.009
98, -3401.22, -3313.07, -3322.25, -3759.04, 0.000, 0.000, 0.000, 13:52:08.010
99, -3407.97, -3320.20, -3329.60, -3760.68, 0.000, 0.000, 0.000, 13:52:08.012
100, -3400.68, -3313.46, -3311.69, -3753.21, 0.000, 0.000, 0.000, 13:52:08.012
101, -3405.18, -3321.70, -3321.25, -3755.43, 0.000, 0.000, 0.000, 13:52:08.012
102, -3391.51, -3319.34, -3308.66, -3757.49, 0.000, 0.000, 0.000, 13:52:08.012
103, -3387.68, -3312.46, -3305.73, -3745.11, 0.000, 0.000, 0.000, 13:52:08.013
104, -3386.22, -3305.06, -3307.45, -3744.59, 0.000, 0.000, 0.000, 13:52:08.013
105, -3398.79, -3317.49, -3305.94, -3757.61, 0.000, 0.000, 0.000, 13:52:08.018
106, -3379.65, -3299.92, -3302.43, -3742.78, 0.000, 0.000, 0.000, 13:52:08.018
107, -3377.87, -3306.22, -3293.81, -3749.13, 0.000, 0.000, 0.000, 13:52:08.018
108, -3390.98, -3311.58, -3310.22, -3751.15, 0.000, 0.000, 0.000, 13:52:08.021
109, -3391.92, -3305.17, -3309.38, -3750.10, 0.000, 0.000, 0.000, 13:52:08.022
110, -3395.00, -3306.98, -3311.62, -3753.41, 0.000, 0.000, 0.000, 13:52:08.023
111, -3381.25, -3303.00, -3307.32, -3733.77, 0.000, 0.000, 0.000, 13:52:08.023
112, -3387.06, -3305.26, -3300.79, -3744.37, 0.000, 0.000, 0.000, 13:52:08.023
113, -3396.24, -3300.64, -3308.88, -3749.52, 0.000, 0.000, 0.000, 13:52:08.023
114, -3383.60, -3289.33, -3294.89, -3738.50, 0.000, 0.000, 0.000, 13:52:08.024
115, -3388.12, -3299.49, -3305.41, -3732.93, 0.000, 0.000, 0.000, 13:52:08.024
116, -3381.90, -3300.94, -3304.13, -3739.60, 0.000, 0.000, 0.000, 13:52:08.036
117, -3379.96, -3299.20, -3308.64, -3739.11, 0.000, 0.000, 0.000, 13:52:08.036
118, -3382.30, -3291.83, -3312.52, -3746.74, 0.000, 0.000, 0.000, 13:52:08.037
119, -3379.34, -3296.89, -3308.18, -3748.07, 0.000, 0.000, 0.000, 13:52:08.037
120, -3382.63, -3297.16, -3305.38, -3744.69, 0.000, 0.000, 0.000, 13:52:08.037
121, -3377.58, -3292.89, -3305.38, -3742.78, 0.000, 0.000, 0.000, 13:52:08.622
122, -3390.18, -3308.19, -3305.20, -3750.26, 0.000, 0.000, 0.000, 13:52:08.644
123, -3387.66, -3313.14, -3312.78, -3743.73, 0.000, 0.000, 0.000, 13:52:08.644
124, -3383.82, -3306.72, -3298.34, -3745.56, 0.000, 0.000, 0.000, 13:52:08.644
125, -3382.44, -3302.95, -3306.81, -3757.21, 0.000, 0.000, 0.000, 13:52:08.645
126, -3370.12, -3292.57, -3293.14, -3735.53, 0.000, 0.000, 0.000, 13:52:08.645
127, -3368.74, -3298.33, -3295.20, -3730.63, 0.000, 0.000, 0.000, 13:52:08.663
128, -3382.23, -3310.57, -3299.84, -3743.85, 0.000, 0.000, 0.000, 13:52:08.664
129, -3383.50, -3305.65, -3307.03, -3749.68, 0.000, 0.000, 0.000, 13:52:08.686
130, -3375.16, -3300.89, -3302.38, -3739.48, 0.000, 0.000, 0.000, 13:52:08.686
131, -3370.79, -3304.89, -3299.68, -3735.42, 0.000, 0.000, 0.000, 13:52:08.686
132, -3377.01, -3295.71, -3303.78, -3733.84, 0.000, 0.000, 0.000, 13:52:08.687
133, -3379.76, -3295.60, -3297.73, -3735.96, 0.000, 0.000, 0.000, 13:52:08.785
134, -3375.95, -3290.64, -3287.46, -3738.13, 0.000, 0.000, 0.000, 13:52:08.785
135, -3376.36, -3299.20, -3294.79, -3726.51, 0.000, 0.000, 0.000, 13:52:08.809
136, -3380.00, -3292.91, -3287.79, -3729.75, 0.000, 0.000, 0.000, 13:52:08.809
137, -3379.76, -3297.76, -3289.84, -3740.29, 0.000, 0.000, 0.000, 13:52:08.809
138, -3373.06, -3288.11, -3286.61, -3738.96, 0.000, 0.000, 0.000, 13:52:08.809
139, -3375.92, -3300.34, -3296.72, -3739.02, 0.000, 0.000, 0.000, 13:52:08.914
140, -3380.33, -3298.55, -3282.08, -3734.45, 0.000, 0.000, 0.000, 13:52:08.915
141, -3371.77, -3292.92, -3292.59, -3736.52, 0.000, 0.000, 0.000, 13:52:08.915
142, -3373.06, -3287.60, -3291.74, -3727.94, 0.000, 0.000, 0.000, 13:52:08.915
143, -3369.22, -3291.28, -3292.33, -3732.50, 0.000, 0.000, 0.000, 13:52:08.915
144, -3375.08, -3291.27, -3284.40, -3729.10, 0.000, 0.000, 0.000, 13:52:08.915
145, -3376.97, -3286.92, -3280.10, -3734.06, 0.000, 0.000, 0.000, 13:52:08.916
146, -3367.18, -3288.92, -3291.59, -3726.98, 0.000, 0.000, 0.000, 13:52:08.916
147, -3366.49, -3276.76, -3288.70, -3722.36, 0.000, 0.000, 0.000, 13:52:08.916
148, -3375.10, -3280.23, -3297.82, -3729.80, 0.000, 0.000, 0.000, 13:52:08.917
149, -3371.79, -3274.43, -3303.61, -3737.95, 0.000, 0.000, 0.000, 13:52:08.917
150, -3371.92, -3275.96, -3295.53, -3733.60, 0.000, 0.000, 0.000, 13:52:08.917
151, -3386.66, -3279.30, -3309.47, -3740.12, 0.000, 0.000, 0.000, 13:52:08.917
152, -3373.52, -3274.10, -3292.46, -3728.66, 0.000, 0.000, 0.000, 13:52:08.918
153, -3368.25, -3276.53, -3297.96, -3745.29, 0.000, 0.000, 0.000, 13:52:08.918
154, -3376.01, -3273.92, -3307.29, -3743.83, 0.000, 0.000, 0.000, 13:52:08.918
155, -3375.03, -3274.56, -3302.92, -3734.84, 0.000, 0.000, 0.000, 13:52:08.918
156, -3383.64, -3292.92, -3310.22, -3741.66, 0.000, 0.000, 0.000, 13:52:08.919
157, -3390.53, -3299.66, -3313.13, -3752.28, 0.000, 0.000, 0.000, 13:52:08.920
158, -3379.40, -3286.50, -3302.41, -3739.28, 0.000, 0.000, 0.000, 13:52:08.920
159, -3374.86, -3284.14, -3287.44, -3732.94, 0.000, 0.000, 0.000, 13:52:08.921
160, -3373.61, -3288.41, -3289.77, -3739.97, 0.000, 0.000, 0.000, 13:52:08.921
161, -3379.10, -3287.77, -3297.12, -3744.00, 0.000, 0.000, 0.000, 13:52:08.922
162, -3371.50, -3289.02, -3303.81, -3745.43, 0.000, 0.000, 0.000, 13:52:08.948
163, -3374.93, -3293.92, -3297.77, -3747.10, 0.000, 0.000, 0.000, 13:52:08.949
164, -3385.54, -3300.94, -3294.68, -3743.79, 0.000, 0.000, 0.000, 13:52:08.950
165, -3386.47, -3307.38, -3307.99, -3745.55, 0.000, 0.000, 0.000, 13:52:08.959
166, -3382.66, -3301.90, -3296.70, -3744.10, 0.000, 0.000, 0.000, 13:52:08.959
167, -3381.37, -3303.12, -3294.50, -3746.34, 0.000, 0.000, 0.000, 13:52:08.959
168, -3381.70, -3300.53, -3296.57, -3744.77, 0.000, 0.000, 0.000, 13:52:08.960
169, -3369.99, -3296.27, -3284.84, -3731.31, 0.000, 0.000, 0.000, 13:52:09.261
170, -3391.89, -3302.76, -3306.36, -3738.87, 0.000, 0.000, 0.000, 13:52:09.265
171, -3375.96, -3287.94, -3300.85, -3735.65, 0.000, 0.000, 0.000, 13:52:09.265
172, -3376.82, -3294.72, -3296.28, -3733.00, 0.000, 0.000, 0.000, 13:52:09.265
173, -3379.66, -3303.14, -3291.05, -3732.98, 0.000, 0.000, 0.000, 13:52:09.265
174, -3381.51, -3301.00, -3293.37, -3728.40, 0.000, 0.000, 0.000, 13:52:09.265
175, -3375.60, -3299.46, -3301.36, -3733.56, 0.000, 0.000, 0.000, 13:52:09.306
176, -3381.20, -3306.94, -3299.57, -3737.24, 0.000, 0.000, 0.000, 13:52:09.309
177, -3378.07, -3309.16, -3301.45, -3732.29, 0.000, 0.000, 0.000, 13:52:09.309
178, -3392.76, -3310.47, -3302.56, -3746.31, 0.000, 0.000, 0.000, 13:52:09.309
179, -3377.74, -3310.26, -3296.04, -3733.24, 0.000, 0.000, 0.000, 13:52:09.310
180, -3378.44, -3305.69, -3296.46, -3733.92, 0.000, 0.000, 0.000, 13:52:09.310
181, -3372.86, -3297.64, -3303.25, -3737.72, 0.000, 0.000, 0.000, 13:52:09.312
182, -3369.22, -3293.73, -3292.17, -3728.38, 0.000, 0.000, 0.000, 13:52:09.319
183, -3381.50, -3303.20, -3299.65, -3740.18, 0.000, 0.000, 0.000, 13:52:09.319
184, -3374.60, -3295.77, -3297.52, -3735.79, 0.000, 0.000, 0.000, 13:52:09.319
185, -3372.63, -3306.03, -3307.44, -3750.09, 0.000, 0.000, 0.000, 13:52:09.321
186, -3369.54, -3293.79, -3298.04, -3744.82, 0.000, 0.000, 0.000, 13:52:09.321
187, -3365.06, -3298.67, -3296.46, -3738.55, 0.000, 0.000, 0.000, 13:52:09.322
188, -3368.12, -3293.60, -3299.02, -3732.48, 0.000, 0.000, 0.000, 13:52:09.322
189, -3361.32, -3288.00, -3289.23, -3731.18, 0.000, 0.000, 0.000, 13:52:09.324
190, -3368.83, -3288.90, -3298.16, -3724.43, 0.000, 0.000, 0.000, 13:52:09.325
191, -3360.05, -3284.40, -3287.07, -3729.54, 0.000, 0.000, 0.000, 13:52:09.325
192, -3354.62, -3277.52, -3286.23, -3726.99, 0.000, 0.000, 0.000, 13:52:09.325
193, -3364.87, -3281.35, -3288.68, -3734.84, 0.000, 0.000, 0.000, 13:52:09.341
194, -3352.87, -3278.68, -3286.62, -3718.19, 0.000, 0.000, 0.000, 13:52:09.344
195, -3362.79, -3283.22, -3295.17, -3724.06, 0.000, 0.000, 0.000, 13:52:09.344
196, -3358.59, -3276.65, -3276.69, -3720.35, 0.000, 0.000, 0.000, 13:52:09.344
197, -3362.40, -3276.78, -3284.34, -3723.73, 0.000, 0.000, 0.000, 13:52:09.344
198, -3357.13, -3272.86, -3282.66, -3724.35, 0.000, 0.000, 0.000, 13:52:09.345
199, -3368.55, -3278.97, -3281.84, -3730.42, 0.000, 0.000, 0.000, 13:52:09.345
200, -3356.51, -3272.69, -3276.91, -3720.67, 0.000, 0.000, 0.000, 13:52:09.345
0, -3363.07, -3277.31, -3287.87, -3728.53, 0.000, 0.000, 0.000, 13:52:09.346
1, -3360.28, -3272.99, -3278.47, -3723.23, 0.000, 0.000, 0.000, 13:52:09.346
2, -3357.34, -3271.94, -3276.06, -3723.21, 0.000, 0.000, 0.000, 13:52:09.346
3, -3358.90, -3275.21, -3274.29, -3724.83, 0.000, 0.000, 0.000, 13:52:09.348
4, -3366.90, -3277.58, -3286.40, -3728.32, 0.000, 0.000, 0.000, 13:52:09.357
5, -3371.89, -3281.88, -3290.53, -3724.25, 0.000, 0.000, 0.000, 13:52:09.357
6, -3376.40, -3292.09, -3294.23, -3733.58, 0.000, 0.000, 0.000, 13:52:09.357
7, -3370.96, -3281.95, -3293.83, -3737.04, 0.000, 0.000, 0.000, 13:52:09.357
8, -3369.34, -3287.17, -3299.29, -3738.48, 0.000, 0.000, 0.000, 13:52:09.358
9, -3374.02, -3287.19, -3292.92, -3734.42, 0.000, 0.000, 0.000, 13:52:09.365
10, -3379.76, -3287.32, -3298.76, -3731.85, 0.000, 0.000, 0.000, 13:52:09.365
11, -3372.44, -3278.48, -3293.00, -3724.75, 0.000, 0.000, 0.000, 13:52:09.392
12, -3365.35, -3286.26, -3290.52, -3729.55, 0.000, 0.000, 0.000, 13:52:09.392
13, -3374.65, -3287.78, -3298.11, -3734.05, 0.000, 0.000, 0.000, 13:52:09.393
14, -3363.85, -3279.93, -3300.92, -3728.07, 0.000, 0.000, 0.000, 13:52:09.393
15, -3361.47, -3292.58, -3287.32, -3727.59, 0.000, 0.000, 0.000, 13:52:09.487
16, -3368.38, -3290.38, -3291.01, -3731.80, 0.000, 0.000, 0.000, 13:52:09.488
17, -3371.34, -3286.96, -3294.52, -3728.44, 0.000, 0.000, 0.000, 13:52:09.488
18, -3372.54, -3285.83, -3294.39, -3727.23, 0.000, 0.000, 0.000, 13:52:09.488
19, -3372.88, -3289.72, -3288.43, -3728.36, 0.000, 0.000, 0.000, 13:52:09.488
20, -3365.68, -3282.47, -3289.35, -3729.79, 0.000, 0.000, 0.000, 13:52:09.488
21, -3369.15, -3285.99, -3290.42, -3731.38, 0.000, 0.000, 0.000, 13:52:09.489
22, -3371.63, -3290.14, -3293.95, -3719.57, 0.000, 0.000, 0.000, 13:52:09.489
23, -3369.41, -3291.41, -3287.86, -3724.14, 0.000, 0.000, 0.000, 13:52:09.489
24, -3373.63, -3290.33, -3295.39, -3736.41, 0.000, 0.000, 0.000, 13:52:09.489
25, -3363.59, -3281.64, -3273.44, -3719.45, 0.000, 0.000, 0.000, 13:52:09.490
26, -3365.87, -3294.68, -3277.20, -3717.93, 0.000, 0.000, 0.000, 13:52:09.490
27, -3376.78, -3288.14, -3290.06, -3734.30, 0.000, 0.000, 0.000, 13:52:09.494
28, -3371.88, -3286.14, -3283.23, -3730.78, 0.000, 0.000, 0.000, 13:52:09.496
29, -3373.66, -3286.56, -3291.14, -3733.19, 0.000, 0.000, 0.000, 13:52:09.504
30, -3367.88, -3292.24, -3286.50, -3715.19, 0.000, 0.000, 0.000, 13:52:09.504
31, -3359.08, -3282.22, -3288.87, -3719.18, 0.000, 0.000, 0.000, 13:52:09.504
32, -3371.50, -3286.55, -3297.60, -3726.78, 0.000, 0.000, 0.000, 13:52:09.504
33, -3369.79, -3287.09, -3287.52, -3720.55, 0.000, 0.000, 0.000, 13:52:09.510
34, -3375.82, -3292.69, -3289.68, -3724.56, 0.000, 0.000, 0.000, 13:52:09.510
35, -3367.26, -3283.22, -3283.64, -3718.38, 0.000, 0.000, 0.000, 13:52:09.512
36, -3363.77, -3277.52, -3284.16, -3722.39, 0.000, 0.000, 0.000, 13:52:09.512
37, -3369.64, -3276.70, -3290.02, -3728.33, 0.000, 0.000, 0.000, 13:52:09.513
38, -3375.83, -3287.64, -3293.48, -3733.47, 0.000, 0.000, 0.000, 13:52:09.513
39, -3372.14, -3284.09, -3287.97, -3727.74, 0.000, 0.000, 0.000, 13:52:09.513
40, -3372.47, -3284.67, -3288.92, -3728.59, 0.000, 0.000, 0.000, 13:52:09.513
41, -3371.76, -3286.53, -3287.65, -3730.84, 0.000, 0.000, 0.000, 13:52:09.514
42, -3384.88, -3291.87, -3302.93, -3732.49, 0.000, 0.000, 0.000, 13:52:09.514
43, -3375.74, -3295.60, -3307.89, -3733.88, 0.000, 0.000, 0.000, 13:52:09.514
44, -3385.48, -3287.85, -3301.64, -3739.18, 0.000, 0.000, 0.000, 13:52:09.514
45, -3372.47, -3296.54, -3296.61, -3732.08, 0.000, 0.000, 0.000, 13:52:09.514
46, -3372.47, -3287.87, -3302.24, -3736.76, 0.000, 0.000, 0.000, 13:52:09.514
47, -3385.70, -3298.32, -3312.83, -3734.02, 0.000, 0.000, 0.000, 13:52:09.522
48, -3379.50, -3288.56, -3297.42, -3739.31, 0.000, 0.000, 0.000, 13:52:09.522
49, -3368.78, -3282.47, -3291.81, -3726.32, 0.000, 0.000, 0.000, 13:52:09.523
50, -3382.24, -3299.76, -3302.63, -3735.40, 0.000, 0.000, 0.000, 13:52:09.523
51, -3381.16, -3308.82, -3308.67, -3745.28, 0.000, 0.000, 0.000, 13:52:09.523
52, -3377.47, -3296.14, -3296.17, -3746.49, 0.000, 0.000, 0.000, 13:52:09.523
53, -3383.26, -3303.76, -3308.40, -3748.43, 0.000, 0.000, 0.000, 13:52:09.526
54, -3376.30, -3303.14, -3307.38, -3741.72, 0.000, 0.000, 0.000, 13:52:09.527
55, -3393.15, -3316.01, -3309.84, -3743.88, 0.000, 0.000, 0.000, 13:52:09.528
56, -3391.60, -3309.73, -3310.73, -3752.20, 0.000, 0.000, 0.000, 13:52:09.528
57, -3374.82, -3301.04, -3303.51, -3747.05, 0.000, 0.000, 0.000, 13:52:09.528
58, -3383.58, -3306.15, -3308.61, -3756.02, 0.000, 0.000, 0.000, 13:52:09.528
59, -3381.85, -3310.80, -3301.98, -3749.31, 0.000, 0.000, 0.000, 13:52:09.529
60, -3374.96, -3296.90, -3297.61, -3752.10, 0.000, 0.000, 0.000, 13:52:09.529
61, -3380.54, -3301.10, -3299.05, -3758.72, 0.000, 0.000, 0.000, 13:52:09.530
62, -3373.02, -3303.12, -3301.72, -3750.39, 0.000, 0.000, 0.000, 13:52:09.530
63, -3387.12, -3301.99, -3302.82, -3745.93, 0.000, 0.000, 0.000, 13:52:09.530
64, -3372.34, -3294.47, -3290.64, -3743.46, 0.000, 0.000, 0.000, 13:52:09.531
65, -3375.67, -3290.58, -3293.20, -3735.41, 0.000, 0.000, 0.000, 13:52:09.531
66, -3369.16, -3296.67, -3301.94, -3737.73, 0.000, 0.000, 0.000, 13:52:09.531
67, -3373.38, -3294.90, -3291.15, -3730.71, 0.000, 0.000, 0.000, 13:52:09.532
68, -3367.94, -3275.86, -3283.99, -3719.93, 0.000, 0.000, 0.000, 13:52:09.532
69, -3370.32, -3287.82, -3294.01, -3738.83, 0.000, 0.000, 0.000, 13:52:09.532
70, -3376.45, -3290.67, -3285.06, -3738.96, 0.000, 0.000, 0.000, 13:52:09.533
71, -3370.27, -3292.84, -3285.23, -3733.47, 0.000, 0.000, 0.000, 13:52:09.533
72, -3374.45, -3292.37, -3298.81, -3744.18, 0.000, 0.000, 0.000, 13:52:09.533
73, -3367.61, -3290.81, -3289.93, -3729.11, 0.000, 0.000, 0.000, 13:52:09.533
74, -3366.00, -3290.29, -3292.56, -3717.73, 0.000, 0.000, 0.000, 13:52:09.533
75, -3376.70, -3294.11, -3298.99, -3727.89, 0.000, 0.000, 0.000, 13:52:09.534
76, -3364.77, -3287.30, -3287.73, -3735.94, 0.000, 0.000, 0.000, 13:52:09.534
77, -3360.48, -3278.11, -3274.87, -3716.80, 0.000, 0.000, 0.000, 13:52:09.534
78, -3365.54, -3277.18, -3286.98, -3723.05, 0.000, 0.000, 0.000, 13:52:09.534
79, -3366.29, -3284.80, -3295.20, -3728.72, 0.000, 0.000, 0.000, 13:52:09.535
80, -3371.30, -3287.76, -3288.65, -3721.72, 0.000, 0.000, 0.000, 13:52:09.535
81, -3368.57, -3281.59, -3280.06, -3717.96, 0.000, 0.000, 0.000, 13:52:09.541
82, -3353.93, -3274.86, -3276.46, -3714.60, 0.000, 0.000, 0.000, 13:52:09.541
83, -3362.93, -3286.20, -3284.42, -3721.32, 0.000, 0.000, 0.000, 13:52:09.542
84, -3374.88, -3290.81, -3297.11, -3728.63, 0.000, 0.000, 0.000, 13:52:09.542
85, -3374.92, -3287.96, -3294.65, -3726.29, 0.000, 0.000, 0.000, 13:52:09.542
86, -3377.03, -3291.22, -3295.80, -3722.45, 0.000, 0.000, 0.000, 13:52:09.543
87, -3371.81, -3297.28, -3297.37, -3727.00, 0.000, 0.000, 0.000, 13:52:09.544
88, -3360.66, -3284.06, -3292.22, -3717.62, 0.000, 0.000, 0.000, 13:52:09.544
89, -3358.27, -3276.90, -3284.30, -3724.11, 0.000, 0.000, 0.000, 13:52:09.544
90, -3360.29, -3279.42, -3285.17, -3722.43, 0.000, 0.000, 0.000, 13:52:09.544
91, -3366.80, -3286.64, -3288.47, -3716.69, 0.000, 0.000, 0.000, 13:52:09.544
92, -3366.93, -3283.88, -3285.05, -3724.26, 0.000, 0.000, 0.000, 13:52:09.545
93, -3361.69, -3279.57, -3279.69, -3716.91, 0.000, 0.000, 0.000, 13:52:09.545
94, -3352.48, -3278.47, -3279.38, -3712.54, 0.000, 0.000, 0.000, 13:52:09.545
95, -3364.66, -3287.31, -3278.70, -3716.81, 0.000, 0.000, 0.000, 13:52:09.546
96, -3346.71, -3267.72, -3274.89, -3707.89, 0.000, 0.000, 0.000, 13:52:09.546
97, -3353.91, -3280.38, -3273.29, -3711.08, 0.000, 0.000, 0.000, 13:52:09.546
98, -3372.57, -3297.43, -3277.57, -3729.65, 0.000, 0.000, 0.000, 13:52:09.546
99, -3370.94, -3304.49, -3294.47, -3731.50, 0.000, 0.000, 0.000, 13:52:09.546
100, -3373.04, -3293.25, -3294.67, -3727.94, 0.000, 0.000, 0.000, 13:52:09.546
101, -3372.35, -3299.05, -3286.10, -3732.60, 0.000, 0.000, 0.000, 13:52:09.547
102, -3376.87, -3300.71, -3293.70, -3724.97, 0.000, 0.000, 0.000, 13:52:09.547
103, -3374.46, -3304.69, -3301.68, -3739.14, 0.000, 0.000, 0.000, 13:52:09.547
104, -3366.41, -3291.01, -3288.24, -3742.27, 0.000, 0.000, 0.000, 13:52:09.547
105, -3376.30, -3298.35, -3294.16, -3744.26, 0.000, 0.000, 0.000, 13:52:09.547
106, -3373.89, -3299.13, -3286.42, -3740.46, 0.000, 0.000, 0.000, 13:52:09.547
107, -3372.86, -3298.50, -3293.58, -3740.32, 0.000, 0.000, 0.000, 13:52:09.548
108, -3363.60, -3282.94, -3285.18, -3734.22, 0.000, 0.000, 0.000, 13:52:09.548
109, -3367.15, -3290.36, -3286.94, -3734.53, 0.000, 0.000, 0.000, 13:52:09.548
110, -3372.74, -3294.11, -3288.93, -3732.20, 0.000, 0.000, 0.000, 13:52:09.548
111, -3381.58, -3289.38, -3286.15, -3736.36, 0.000, 0.000, 0.000, 13:52:09.549
112, -3379.88, -3285.55, -3282.99, -3727.98, 0.000, 0.000, 0.000, 13:52:09.549
113, -3360.94, -3279.50, -3281.55, -3718.89, 0.000, 0.000, 0.000, 13:52:09.549
114, -3380.10, -3293.38, -3287.17, -3730.02, 0.000, 0.000, 0.000, 13:52:09.549
115, -3371.11, -3288.43, -3284.39, -3720.86, 0.000, 0.000, 0.000, 13:52:09.549
116, -3369.58, -3288.20, -3284.74, -3720.50, 0.000, 0.000, 0.000, 13:52:09.549
117, -3371.73, -3290.62, -3295.44, -3726.54, 0.000, 0.000, 0.000, 13:52:09.549
118, -3375.58, -3289.59, -3287.89, -3727.55, 0.000, 0.000, 0.000, 13:52:09.550
119, -3378.05, -3297.68, -3288.55, -3726.36, 0.000, 0.000, 0.000, 13:52:09.550
120, -3373.20, -3293.96, -3288.32, -3732.54, 0.000, 0.000, 0.000, 13:52:09.550
121, -3379.13, -3300.80, -3280.46, -3734.92, 0.000, 0.000, 0.000, 13:52:09.552
122, -3375.44, -3303.34, -3285.74, -3729.02, 0.000, 0.000, 0.000, 13:52:09.552
123, -3375.87, -3300.75, -3280.48, -3731.96, 0.000, 0.000, 0.000, 13:52:09.553
124, -3376.51, -3287.63, -3291.08, -3726.30, 0.000, 0.000, 0.000, 13:52:09.553
125, -3365.44, -3284.22, -3281.75, -3722.54, 0.000, 0.000, 0.000, 13:52:09.553
126, -3366.14, -3285.06, -3285.61, -3710.51, 0.000, 0.000, 0.000, 13:52:09.553
127, -3369.57, -3287.13, -3290.51, -3718.03, 0.000, 0.000, 0.000, 13:52:09.553
128, -3368.11, -3277.55, -3289.20, -3724.61, 0.000, 0.000, 0.000, 13:52:09.554
129, -3365.44, -3275.02, -3285.95, -3716.06, 0.000, 0.000, 0.000, 13:52:09.554
130, -3375.46, -3291.38, -3302.28, -3724.55, 0.000, 0.000, 0.000, 13:52:09.554
131, -3373.47, -3290.39, -3299.79, -3717.34, 0.000, 0.000, 0.000, 13:52:09.554
132, -3376.88, -3284.31, -3296.07, -3718.36, 0.000, 0.000, 0.000, 13:52:09.554
133, -3356.86, -3277.10, -3277.80, -3716.54, 0.000, 0.000, 0.000, 13:52:09.555
134, -3365.77, -3287.07, -3284.22, -3719.96, 0.000, 0.000, 0.000, 13:52:09.555
135, -3375.18, -3288.82, -3293.87, -3729.29, 0.000, 0.000, 0.000, 13:52:09.555
136, -3363.98, -3280.31, -3288.11, -3727.09, 0.000, 0.000, 0.000, 13:52:09.555
137, -3356.45, -3275.53, -3278.81, -3724.26, 0.000, 0.000, 0.000, 13:52:09.555
138, -3365.65, -3284.52, -3285.76, -3719.76, 0.000, 0.000, 0.000, 13:52:09.556
139, -3367.02, -3285.84, -3290.75, -3726.44, 0.000, 0.000, 0.000, 13:52:09.556
140, -3361.46, -3277.76, -3277.36, -3725.52, 0.000, 0.000, 0.000, 13:52:09.556
141, -3362.68, -3279.42, -3287.50, -3725.20, 0.000, 0.000, 0.000, 13:52:09.556
142, -3364.06, -3282.66, -3290.17, -3717.09, 0.000, 0.000, 0.000, 13:52:09.556
143, -3370.50, -3284.34, -3281.10, -3722.46, 0.000, 0.000, 0.000, 13:52:09.557
144, -3366.45, -3291.23, -3286.73, -3722.96, 0.000, 0.000, 0.000, 13:52:09.557
145, -3366.06, -3281.56, -3277.39, -3728.03, 0.000, 0.000, 0.000, 13:52:09.557
146, -3365.26, -3284.89, -3277.83, -3731.69, 0.000, 0.000, 0.000, 13:52:09.558
147, -3368.57, -3279.81, -3276.44, -3727.80, 0.000, 0.000, 0.000, 13:52:09.558
148, -3359.08, -3273.08, -3279.36, -3719.86, 0.000, 0.000, 0.000, 13:52:09.558
149, -3357.37, -3270.69, -3288.69, -3723.92, 0.000, 0.000, 0.000, 13:52:09.559
150, -3364.45, -3280.29, -3286.46, -3721.87, 0.000, 0.000, 0.000, 13:52:09.559
151, -3362.47, -3279.60, -3282.58, -3721.77, 0.000, 0.000, 0.000, 13:52:09.559
152, -3375.90, -3292.62, -3294.74, -3725.10, 0.000, 0.000, 0.000, 13:52:09.559
153, -3379.31, -3292.76, -3290.83, -3729.36, 0.000, 0.000, 0.000, 13:52:09.559
154, -3376.35, -3296.58, -3302.15, -3730.87, 0.000, 0.000, 0.000, 13:52:09.559
155, -3370.58, -3297.51, -3295.97, -3726.57, 0.000, 0.000, 0.000, 13:52:09.560
156, -3379.78, -3303.97, -3291.11, -3735.56, 0.000, 0.000, 0.000, 13:52:09.560
157, -3378.75, -3304.97, -3304.78, -3727.18, 0.000, 0.000, 0.000, 13:52:09.560
158, -3385.44, -3297.82, -3302.18, -3730.60, 0.000, 0.000, 0.000, 13:52:09.560
159, -3376.40, -3288.08, -3300.19, -3726.69, 0.000, 0.000, 0.000, 13:52:09.561
160, -3369.83, -3287.88, -3295.94, -3730.50, 0.000, 0.000, 0.000, 13:52:09.561
161, -3367.89, -3286.53, -3290.45, -3719.31, 0.000, 0.000, 0.000, 13:52:09.561
162, -3365.32, -3287.84, -3298.06, -3720.59, 0.000, 0.000, 0.000, 13:52:09.561
163, -3369.20, -3295.42, -3292.89, -3732.30, 0.000, 0.000, 0.000, 13:52:09.561
164, -3375.39, -3298.72, -3293.33, -3731.64, 0.000, 0.000, 0.000, 13:52:09.561
165, -3370.48, -3286.35, -3289.31, -3715.58, 0.000, 0.000, 0.000, 13:52:09.562
166, -3369.55, -3288.45, -3289.87, -3723.06, 0.000, 0.000, 0.000, 13:52:09.562
167, -3368.51, -3284.24, -3287.24, -3727.54, 0.000, 0.000, 0.000, 13:52:09.562
168, -3369.61, -3277.40, -3297.59, -3721.98, 0.000, 0.000, 0.000, 13:52:09.562
169, -3372.96, -3287.60, -3294.23, -3729.15, 0.000, 0.000, 0.000, 13:52:09.562
170, -3370.16, -3291.84, -3285.99, -3735.35, 0.000, 0.000, 0.000, 13:52:09.563
171, -3377.00, -3286.62, -3295.20, -3733.18, 0.000, 0.000, 0.000, 13:52:09.563
172, -3370.54, -3282.47, -3298.27, -3730.16, 0.000, 0.000, 0.000, 13:52:09.563
173, -3366.98, -3285.91, -3288.74, -3732.71, 0.000, 0.000, 0.000, 13:52:09.563
174, -3359.58, -3279.18, -3289.23, -3724.54, 0.000, 0.000, 0.000, 13:52:09.563
175, -3364.26, -3287.39, -3281.32, -3728.57, 0.000, 0.000, 0.000, 13:52:09.564
176, -3354.59, -3273.43, -3275.62, -3722.07, 0.000, 0.000, 0.000, 13:52:09.564
177, -3355.20, -3275.47, -3278.50, -3727.83, 0.000, 0.000, 0.000, 13:52:09.564
178, -3361.52, -3276.89, -3280.98, -3728.26, 0.000, 0.000, 0.000, 13:52:09.564
179, -3352.46, -3281.57, -3273.27, -3720.45, 0.000, 0.000, 0.000, 13:52:09.564
180, -3356.75, -3282.44, -3278.64, -3725.54, 0.000, 0.000, 0.000, 13:52:09.565
181, -3360.27, -3286.56, -3274.68, -3721.79, 0.000, 0.000, 0.000, 13:52:09.565
182, -3362.73, -3289.89, -3273.54, -3728.30, 0.000, 0.000, 0.000, 13:52:09.565
183, -3362.02, -3290.03, -3276.45, -3724.68, 0.000, 0.000, 0.000, 13:52:09.565
184, -3356.32, -3283.33, -3272.02, -3726.66, 0.000, 0.000, 0.000, 13:52:09.565
185, -3356.44, -3279.13, -3276.05, -3722.59, 0.000, 0.000, 0.000, 13:52:09.566
186, -3355.72, -3285.20, -3274.72, -3716.39, 0.000, 0.000, 0.000, 13:52:09.566
187, -3365.43, -3281.00, -3281.07, -3726.52, 0.000, 0.000, 0.000, 13:52:09.566
188, -3361.79, -3284.45, -3281.71, -3733.94, 0.000, 0.000, 0.000, 13:52:09.566
189, -3367.20, -3285.91, -3280.89, -3720.32, 0.000, 0.000, 0.000, 13:52:09.566
190, -3367.70, -3295.95, -3288.56, -3726.45, 0.000, 0.000, 0.000, 13:52:09.566
191, -3367.13, -3284.54, -3291.10, -3728.73, 0.000, 0.000, 0.000, 13:52:09.567
192, -3359.15, -3287.91, -3279.62, -3726.87, 0.000, 0.000, 0.000, 13:52:09.567
193, -3364.69, -3279.80, -3284.29, -3720.23, 0.000, 0.000, 0.000, 13:52:09.567
194, -3367.02, -3284.77, -3284.79, -3718.33, 0.000, 0.000, 0.000, 13:52:09.567
195, -3369.59, -3288.76, -3289.28, -3717.19, 0.000, 0.000, 0.000, 13:52:09.567
196, -3366.69, -3287.26, -3290.32, -3715.81, 0.000, 0.000, 0.000, 13:52:09.567
197, -3376.31, -3280.52, -3292.10, -3721.01, 0.000, 0.000, 0.000, 13:52:09.568
198, -3373.85, -3287.35, -3296.22, -3725.57, 0.000, 0.000, 0.000, 13:52:09.568
199, -3371.80, -3278.76, -3287.79, -3720.60, 0.000, 0.000, 0.000, 13:52:09.568
200, -3379.06, -3290.52, -3297.65, -3730.45, 0.000, 0.000, 0.000, 13:52:09.568
0, -3380.49, -3286.35, -3299.07, -3721.14, 0.000, 0.000, 0.000, 13:52:09.568
1, -3372.40, -3279.45, -3288.10, -3721.83, 0.000, 0.000, 0.000, 13:52:09.569
2, -3352.59, -3272.34, -3277.27, -3702.12, 0.000, 0.000, 0.000, 13:52:09.569
3, -3370.67, -3287.59, -3281.90, -3718.76, 0.000, 0.000, 0.000, 13:52:09.569
4, -3364.92, -3288.52, -3279.98, -3723.18, 0.000, 0.000, 0.000, 13:52:09.569
5, -3371.31, -3284.65, -3275.69, -3722.66, 0.000, 0.000, 0.000, 13:52:09.569
6, -3361.74, -3285.04, -3275.62, -3720.02, 0.000, 0.000, 0.000, 13:52:09.570
31, -3366.61, -3286.22, -3274.63, -3728.67, 0.000, 0.000, 0.000, 13:52:09.571
32, -3367.66, -3282.14, -3276.02, -3720.78, 0.000, 0.000, 0.000, 13:52:09.571
35, -3363.58, -3285.81, -3267.68, -3721.05, 0.000, 0.000, 0.000, 13:52:09.571
36, -3358.79, -3275.97, -3268.72, -3708.50, 0.000, 0.000, 0.000, 13:52:09.571
37, -3357.88, -3276.51, -3261.42, -3717.55, 0.000, 0.000, 0.000, 13:52:09.571
38, -3367.84, -3279.04, -3274.91, -3715.51, 0.000, 0.000, 0.000, 13:52:09.572
39, -3362.93, -3283.89, -3273.03, -3722.31, 0.000, 0.000, 0.000, 13:52:09.572
40, -3356.13, -3278.50, -3264.90, -3715.65, 0.000, 0.000, 0.000, 13:52:09.572
41, -3365.43, -3288.41, -3273.47, -3728.62, 0.000, 0.000, 0.000, 13:52:09.572
42, -3369.26, -3289.97, -3276.25, -3730.09, 0.000, 0.000, 0.000, 13:52:09.572
43, -3365.81, -3286.64, -3280.23, -3736.99, 0.000, 0.000, 0.000, 13:52:09.573
44, -3354.19, -3269.59, -3268.73, -3727.89, 0.000, 0.000, 0.000, 13:52:09.573
45, -3349.42, -3268.34, -3268.24, -3720.85, 0.000, 0.000, 0.000, 13:52:09.573
46, -3351.63, -3269.59, -3269.21, -3724.21, 0.000, 0.000, 0.000, 13:52:09.573
47, -3351.60, -3274.79, -3260.30, -3722.80, 0.000, 0.000, 0.000, 13:52:09.573
48, -3345.23, -3278.62, -3257.59, -3714.76, 0.000, 0.000, 0.000, 13:52:09.573
49, -3352.97, -3278.95, -3262.05, -3719.70, 0.000, 0.000, 0.000, 13:52:09.574
50, -3356.76, -3278.11, -3268.04, -3716.63, 0.000, 0.000, 0.000, 13:52:09.574
51, -3353.11, -3272.74, -3268.21, -3719.33, 0.000, 0.000, 0.000, 13:52:09.574
52, -3356.61, -3277.05, -3261.13, -3716.91, 0.000, 0.000, 0.000, 13:52:09.574
53, -3364.83, -3286.27, -3272.95, -3717.17, 0.000, 0.000, 0.000, 13:52:09.574
54, -3369.32, -3286.52, -3277.64, -3730.68, 0.000, 0.000, 0.000, 13:52:09.574
55, -3365.66, -3267.77, -3267.20, -3720.84, 0.000, 0.000, 0.000, 13:52:09.575
56, -3357.71, -3271.26, -3270.60, -3710.25, 0.000, 0.000, 0.000, 13:52:09.575
155, -3358.26, -3268.15, -3288.37, -3714.02, 0.000, 0.000, 0.000, 13:52:09.575
156, -3356.39, -3272.39, -3286.52, -3715.40, 0.000, 0.000, 0.000, 13:52:09.575
157, -3356.22, -3273.23, -3281.56, -3706.27, 0.000, 0.000, 0.000, 13:52:09.575
158, -3362.94, -3269.07, -3277.93, -3706.56, 0.000, 0.000, 0.000, 13:52:09.576
159, -3359.89, -3272.18, -3283.44, -3713.27, 0.000, 0.000, 0.000, 13:52:09.576
160, -3352.31, -3262.56, -3281.97, -3709.04, 0.000, 0.000, 0.000, 13:52:09.576
163, -3348.65, -3266.16, -3277.79, -3710.72, 0.000, 0.000, 0.000, 13:52:09.576
164, -3354.34, -3269.16, -3287.92, -3702.90, 0.000, 0.000, 0.000, 13:52:09.578
169, -3354.14, -3270.41, -3292.35, -3700.65, 0.000, 0.000, 0.000, 13:52:09.579
170, -3351.89, -3267.58, -3277.61, -3702.58, 0.000, 0.000, 0.000, 13:52:09.579
171, -3351.64, -3265.21, -3286.21, -3691.14, 0.000, 0.000, 0.000, 13:52:09.580
172, -3357.04, -3265.78, -3291.22, -3691.45, 0.000, 0.000, 0.000, 13:52:09.580
187, -3346.60, -3262.67, -3286.07, -3686.88, 0.000, 0.000, 0.000, 13:52:09.581
188, -3354.96, -3260.92, -3293.11, -3687.98, 0.000, 0.000, 0.000, 13:52:09.581
193, -3347.08, -3262.91, -3296.63, -3686.57, 0.000, 0.000, 0.000, 13:52:09.581
194, -3348.74, -3255.18, -3301.10, -3689.16, 0.000, 0.000, 0.000, 13:52:09.582
195, -3337.18, -3238.09, -3280.26, -3681.65, 0.000, 0.000, 0.000, 13:52:09.582
196, -3350.49, -3255.28, -3294.40, -3681.36, 0.000, 0.000, 0.000, 13:52:09.582
13, -3348.13, -3251.96, -3295.29, -3680.21, 0.000, 0.000, 0.000, 13:52:09.583
14, -3350.54, -3255.41, -3303.67, -3683.34, 0.000, 0.000, 0.000, 13:52:09.583
15, -3357.45, -3253.70, -3302.59, -3677.19, 0.000, 0.000, 0.000, 13:52:09.583
16, -3364.90, -3259.36, -3299.58, -3691.11, 0.000, 0.000, 0.000, 13:52:09.583
17, -3357.03, -3250.32, -3307.96, -3692.43, 0.000, 0.000, 0.000, 13:52:09.584
18, -3351.30, -3258.92, -3299.94, -3695.65, 0.000, 0.000, 0.000, 13:52:09.584
19, -3358.28, -3266.79, -3302.05, -3700.47, 0.000, 0.000, 0.000, 13:52:09.584
20, -3361.61, -3267.16, -3302.15, -3693.39, 0.000, 0.000, 0.000, 13:52:09.584
21, -3362.00, -3264.67, -3304.26, -3690.74, 0.000, 0.000, 0.000, 13:52:09.584
22, -3360.03, -3270.53, -3298.54, -3686.87, 0.000, 0.000, 0.000, 13:52:09.585
23, -3362.57, -3266.51, -3293.01, -3689.25, 0.000, 0.000, 0.000, 13:52:09.585
24, -3359.77, -3264.20, -3294.94, -3689.93, 0.000, 0.000, 0.000, 13:52:09.585
25, -3358.56, -3267.01, -3289.50, -3684.99, 0.000, 0.000, 0.000, 13:52:09.586
26, -3361.01, -3253.98, -3296.72, -3684.26, 0.000, 0.000, 0.000, 13:52:09.586
27, -3343.60, -3245.47, -3292.55, -3680.38, 0.000, 0.000, 0.000, 13:52:09.586
28, -3346.98, -3252.66, -3285.83, -3677.80, 0.000, 0.000, 0.000, 13:52:09.586
29, -3350.28, -3260.23, -3285.09, -3687.68, 0.000, 0.000, 0.000, 13:52:09.586
30, -3349.38, -3256.25, -3279.31, -3683.43, 0.000, 0.000, 0.000, 13:52:09.587
31, -3354.07, -3260.44, -3281.99, -3682.28, 0.000, 0.000, 0.000, 13:52:09.587
32, -3356.61, -3260.21, -3288.76, -3689.02, 0.000, 0.000, 0.000, 13:52:09.587
33, -3357.21, -3264.35, -3291.62, -3688.91, 0.000, 0.000, 0.000, 13:52:09.587
34, -3356.80, -3256.88, -3296.79, -3701.41, 0.000, 0.000, 0.000, 13:52:09.587
35, -3342.69, -3249.18, -3290.34, -3686.57, 0.000, 0.000, 0.000, 13:52:09.587
36, -3350.02, -3259.41, -3292.46, -3684.35, 0.000, 0.000, 0.000, 13:52:09.588
37, -3344.14, -3255.73, -3287.81, -3684.55, 0.000, 0.000, 0.000, 13:52:09.591
38, -3356.73, -3255.40, -3296.09, -3688.87, 0.000, 0.000, 0.000, 13:52:09.591
39, -3357.32, -3259.07, -3298.70, -3688.63, 0.000, 0.000, 0.000, 13:52:09.592
40, -3358.30, -3262.02, -3296.81, -3694.78, 0.000, 0.000, 0.000, 13:52:09.592
41, -3351.26, -3256.65, -3295.33, -3692.72, 0.000, 0.000, 0.000, 13:52:09.592
42, -3351.69, -3257.42, -3289.05, -3693.06, 0.000, 0.000, 0.000, 13:52:09.592
83, -3358.68, -3262.41, -3291.49, -3698.36, 0.000, 0.000, 0.000, 13:52:09.593
84, -3361.73, -3266.68, -3285.28, -3696.13, 0.000, 0.000, 0.000, 13:52:09.593
85, -3358.12, -3260.03, -3293.92, -3712.10, 0.000, 0.000, 0.000, 13:52:09.593
86, -3352.18, -3258.35, -3289.86, -3701.53, 0.000, 0.000, 0.000, 13:52:09.593
87, -3355.72, -3262.71, -3290.32, -3712.35, 0.000, 0.000, 0.000, 13:52:09.594
88, -3353.73, -3261.51, -3285.21, -3711.52, 0.000, 0.000, 0.000, 13:52:09.594
95, -3354.67, -3271.62, -3294.79, -3705.15, 0.000, 0.000, 0.000, 13:52:09.594
96, -3361.01, -3286.21, -3296.48, -3710.93, 0.000, 0.000, 0.000, 13:52:09.594
97, -3357.17, -3271.23, -3279.30, -3697.15, 0.000, 0.000, 0.000, 13:52:09.594
98, -3362.86, -3277.98, -3286.03, -3698.99, 0.000, 0.000, 0.000, 13:52:09.594
99, -3361.34, -3278.11, -3287.56, -3695.04, 0.000, 0.000, 0.000, 13:52:09.600
100, -3357.56, -3274.52, -3288.59, -3688.96, 0.000, 0.000, 0.000, 13:52:09.600
101, -3355.42, -3274.24, -3283.75, -3696.72, 0.000, 0.000, 0.000, 13:52:09.600
102, -3357.07, -3273.22, -3284.31, -3692.47, 0.000, 0.000, 0.000, 13:52:09.601
103, -3360.82, -3278.88, -3277.55, -3696.72, 0.000, 0.000, 0.000, 13:52:09.601
104, -3351.44, -3266.61, -3278.23, -3694.04, 0.000, 0.000, 0.000, 13:52:09.601
105, -3345.50, -3264.12, -3281.43, -3693.35, 0.000, 0.000, 0.000, 13:52:09.601
106, -3345.65, -3262.59, -3277.78, -3700.54, 0.000, 0.000, 0.000, 13:52:09.602
107, -3360.03, -3273.95, -3289.86, -3704.71, 0.000, 0.000, 0.000, 13:52:09.602
108, -3355.88, -3275.61, -3285.23, -3706.81, 0.000, 0.000, 0.000, 13:52:09.602
109, -3357.48, -3268.15, -3291.78, -3716.20, 0.000, 0.000, 0.000, 13:52:09.602
110, -3356.87, -3267.65, -3286.40, -3707.52, 0.000, 0.000, 0.000, 13:52:09.603
111, -3351.91, -3271.91, -3281.61, -3706.57, 0.000, 0.000, 0.000, 13:52:09.603
112, -3353.02, -3280.56, -3285.15, -3709.96, 0.000, 0.000, 0.000, 13:52:09.603
113, -3354.20, -3274.76, -3287.98, -3710.60, 0.000, 0.000, 0.000, 13:52:09.603
114, -3360.66, -3269.54, -3285.10, -3709.30, 0.000, 0.000, 0.000, 13:52:09.603
115, -3356.85, -3267.75, -3284.17, -3700.64, 0.000, 0.000, 0.000, 13:52:09.604
116, -3359.63, -3273.62, -3286.32, -3708.48, 0.000, 0.000, 0.000, 13:52:09.604
117, -3358.43, -3272.60, -3280.80, -3705.71, 0.000, 0.000, 0.000, 13:52:09.604
118, -3361.26, -3272.38, -3281.72, -3692.76, 0.000, 0.000, 0.000, 13:52:09.604
119, -3357.18, -3264.02, -3281.04, -3695.53, 0.000, 0.000, 0.000, 13:52:09.604
120, -3362.31, -3271.51, -3284.98, -3703.61, 0.000, 0.000, 0.000, 13:52:09.605
121, -3349.44, -3269.08, -3275.99, -3699.82, 0.000, 0.000, 0.000, 13:52:09.605
122, -3352.78, -3270.56, -3279.66, -3703.79, 0.000, 0.000, 0.000, 13:52:09.605
123, -3350.62, -3273.28, -3283.09, -3704.11, 0.000, 0.000, 0.000, 13:52:09.605
124, -3357.02, -3273.60, -3282.32, -3709.34, 0.000, 0.000, 0.000, 13:52:09.605
125, -3361.19, -3275.23, -3277.38, -3705.18, 0.000, 0.000, 0.000, 13:52:09.605
126, -3358.13, -3277.65, -3287.31, -3707.05, 0.000, 0.000, 0.000, 13:52:09.606
127, -3365.56, -3284.05, -3293.22, -3712.77, 0.000, 0.000, 0.000, 13:52:09.609
128, -3359.10, -3279.28, -3298.35, -3700.86, 0.000, 0.000, 0.000, 13:52:09.609
129, -3366.89, -3281.55, -3300.60, -3703.19, 0.000, 0.000, 0.000, 13:52:09.609
130, -3365.71, -3284.88, -3297.36, -3713.53, 0.000, 0.000, 0.000, 13:52:09.609
131, -3373.56, -3284.31, -3305.31, -3716.32, 0.000, 0.000, 0.000, 13:52:09.609
132, -3361.56, -3277.73, -3295.78, -3705.75, 0.000, 0.000, 0.000, 13:52:09.610
133, -3364.46, -3286.45, -3305.13, -3717.26, 0.000, 0.000, 0.000, 13:52:09.610
134, -3366.01, -3269.61, -3292.73, -3706.11, 0.000, 0.000, 0.000, 13:52:09.610
135, -3364.79, -3266.35, -3297.49, -3705.97, 0.000, 0.000, 0.000, 13:52:09.611
136, -3352.13, -3264.99, -3285.89, -3697.15, 0.000, 0.000, 0.000, 13:52:09.611
137, -3357.39, -3271.49, -3285.95, -3703.12, 0.000, 0.000, 0.000, 13:52:09.612
138, -3347.82, -3261.00, -3285.20, -3695.76, 0.000, 0.000, 0.000, 13:52:09.612
139, -3362.14, -3279.31, -3296.52, -3697.18, 0.000, 0.000, 0.000, 13:52:09.616
140, -3365.25, -3282.50, -3290.48, -3702.02, 0.000, 0.000, 0.000, 13:52:09.616
141, -3361.66, -3279.23, -3290.80, -3707.25, 0.000, 0.000, 0.000, 13:52:09.616
142, -3352.03, -3268.97, -3294.59, -3706.49, 0.000, 0.000, 0.000, 13:52:09.616
143, -3354.55, -3271.43, -3282.81, -3696.98, 0.000, 0.000, 0.000, 13:52:09.638
144, -3357.61, -3273.71, -3288.28, -3701.90, 0.000, 0.000, 0.000, 13:52:09.638
145, -3363.49, -3272.31, -3288.54, -3700.47, 0.000, 0.000, 0.000, 13:52:09.639
146, -3357.72, -3271.89, -3283.48, -3708.69, 0.000, 0.000, 0.000, 13:52:09.656
147, -3353.38, -3274.67, -3285.92, -3704.17, 0.000, 0.000, 0.000, 13:52:09.656
148, -3354.09, -3274.26, -3286.04, -3707.71, 0.000, 0.000, 0.000, 13:52:09.656
149, -3353.97, -3272.04, -3287.86, -3703.72, 0.000, 0.000, 0.000, 13:52:09.661
150, -3358.59, -3272.11, -3295.04, -3711.04, 0.000, 0.000, 0.000, 13:52:09.662
151, -3356.21, -3272.35, -3300.01, -3707.81, 0.000, 0.000, 0.000, 13:52:09.663
152, -3358.60, -3270.50, -3288.56, -3707.93, 0.000, 0.000, 0.000, 13:52:09.663
153, -3357.46, -3274.27, -3287.70, -3704.65, 0.000, 0.000, 0.000, 13:52:09.663
154, -3357.17, -3272.93, -3289.00, -3714.76, 0.000, 0.000, 0.000, 13:52:09.663
155, -3358.13, -3271.46, -3290.57, -3702.26, 0.000, 0.000, 0.000, 13:52:09.664
156, -3358.41, -3278.65, -3286.26, -3709.30, 0.000, 0.000, 0.000, 13:52:09.664
157, -3357.25, -3274.51, -3275.88, -3697.76, 0.000, 0.000, 0.000, 13:52:09.664
158, -3353.18, -3256.65, -3283.37, -3704.73, 0.000, 0.000, 0.000, 13:52:09.664
159, -3351.68, -3264.23, -3275.03, -3699.11, 0.000, 0.000, 0.000, 13:52:09.675
160, -3352.32, -3267.37, -3280.40, -3702.42, 0.000, 0.000, 0.000, 13:52:09.675
161, -3363.18, -3271.26, -3284.65, -3712.90, 0.000, 0.000, 0.000, 13:52:09.676
162, -3354.01, -3264.46, -3279.01, -3706.07, 0.000, 0.000, 0.000, 13:52:09.676
163, -3349.12, -3267.20, -3279.91, -3700.89, 0.000, 0.000, 0.000, 13:52:09.690
164, -3358.58, -3271.51, -3287.30, -3704.77, 0.000, 0.000, 0.000, 13:52:09.691
165, -3350.71, -3263.67, -3278.74, -3697.68, 0.000, 0.000, 0.000, 13:52:09.703
166, -3358.82, -3268.33, -3284.95, -3704.49, 0.000, 0.000, 0.000, 13:52:09.703
167, -3348.53, -3262.94, -3281.55, -3699.90, 0.000, 0.000, 0.000, 13:52:09.703
168, -3360.08, -3267.86, -3282.03, -3702.94, 0.000, 0.000, 0.000, 13:52:09.703
169, -3354.49, -3264.77, -3286.30, -3703.70, 0.000, 0.000, 0.000, 13:52:09.718
170, -3354.49, -3267.92, -3286.70, -3699.79, 0.000, 0.000, 0.000, 13:52:09.718
171, -3351.79, -3271.49, -3292.25, -3706.03, 0.000, 0.000, 0.000, 13:52:09.734
172, -3350.63, -3269.96, -3280.48, -3711.23, 0.000, 0.000, 0.000, 13:52:09.734
173, -3353.25, -3263.36, -3283.11, -3699.26, 0.000, 0.000, 0.000, 13:52:09.735
174, -3346.48, -3254.89, -3281.63, -3701.43, 0.000, 0.000, 0.000, 13:52:09.735
175, -3349.18, -3262.51, -3281.31, -3703.52, 0.000, 0.000, 0.000, 13:52:09.748
176, -3348.90, -3268.91, -3293.24, -3706.75, 0.000, 0.000, 0.000, 13:52:09.748
177, -3348.46, -3265.75, -3284.69, -3696.97, 0.000, 0.000, 0.000, 13:52:09.765
178, -3350.82, -3252.90, -3283.75, -3690.12, 0.000, 0.000, 0.000, 13:52:09.765
179, -3349.95, -3264.35, -3284.90, -3696.69, 0.000, 0.000, 0.000, 13:52:09.765
180, -3350.99, -3278.16, -3287.02, -3704.36, 0.000, 0.000, 0.000, 13:52:09.766
181, -3324.32, -3266.53, -3284.14, -3703.04, 0.000, 0.000, 0.000, 13:52:09.778
182, -3319.66, -3270.88, -3291.24, -3711.65, 0.000, 0.000, 0.000, 13:52:09.778
183, -3311.59, -3270.32, -3293.98, -3707.57, 0.000, 0.000, 0.000, 13:52:09.793
184, -3309.30, -3277.23, -3294.04, -3707.07, 0.000, 0.000, 0.000, 13:52:09.794
185, -3312.46, -3278.36, -3303.27, -3714.27, 0.000, 0.000, 0.000, 13:52:09.794
186, -3319.15, -3282.51, -3307.67, -3720.99, 0.000, 0.000, 0.000, 13:52:09.794
187, -3316.81, -3283.22, -3311.55, -3716.56, 0.000, 0.000, 0.000, 13:52:09.808
188, -3315.48, -3285.22, -3293.47, -3713.77, 0.000, 0.000, 0.000, 13:52:09.808
189, -3312.89, -3279.89, -3297.11, -3709.32, 0.000, 0.000, 0.000, 13:52:09.841
190, -3306.01, -3268.10, -3291.40, -3697.75, 0.000, 0.000, 0.000, 13:52:09.841
191, -3305.59, -3268.83, -3293.44, -3703.53, 0.000, 0.000, 0.000, 13:52:09.841
192, -3297.41, -3271.52, -3300.40, -3692.95, 0.000, 0.000, 0.000, 13:52:09.841
193, -3307.64, -3270.58, -3284.34, -3701.70, 0.000, 0.000, 0.000, 13:52:09.841
194, -3297.34, -3275.13, -3278.65, -3702.36, 0.000, 0.000, 0.000, 13:52:09.842
195, -3294.08, -3264.11, -3276.40, -3698.21, 0.000, 0.000, 0.000, 13:52:09.859
196, -3297.30, -3275.32, -3274.69, -3702.04, 0.000, 0.000, 0.000, 13:52:09.860
197, -3293.95, -3272.49, -3268.65, -3712.05, 0.000, 0.000, 0.000, 13:52:09.871
198, -3295.98, -3278.70, -3280.97, -3712.81, 0.000, 0.000, 0.000, 13:52:09.871
199, -3307.48, -3281.62, -3281.80, -3717.06, 0.000, 0.000, 0.000, 13:52:09.885
200, -3310.33, -3269.60, -3278.46, -3707.66, 0.000, 0.000, 0.000, 13:52:09.886
0, -3313.96, -3297.23, -3291.62, -3727.02, 0.000, 0.000, 0.000, 13:52:09.892
1, -3314.94, -3287.59, -3297.33, -3719.88, 0.000, 0.000, 0.000, 13:52:09.896
2, -3320.60, -3281.63, -3290.24, -3717.49, 0.000, 0.000, 0.000, 13:52:09.900
3, -3320.86, -3281.19, -3282.12, -3716.43, 0.000, 0.000, 0.000, 13:52:09.901
4, -3324.71, -3279.68, -3292.33, -3727.82, 0.000, 0.000, 0.000, 13:52:09.902
5, -3321.24, -3277.66, -3285.29, -3717.02, 0.000, 0.000, 0.000, 13:52:09.902
6, -3311.35, -3278.78, -3290.88, -3710.52, 0.000, 0.000, 0.000, 13:52:09.902
7, -3311.24, -3277.62, -3273.99, -3711.46, 0.000, 0.000, 0.000, 13:52:09.918
8, -3314.78, -3277.33, -3278.99, -3718.23, 0.000, 0.000, 0.000, 13:52:09.918
9, -3318.29, -3276.24, -3276.31, -3719.15, 0.000, 0.000, 0.000, 13:52:09.928
10, -3330.14, -3281.50, -3282.49, -3722.26, 0.000, 0.000, 0.000, 13:52:09.928
11, -3325.83, -3280.37, -3277.20, -3716.38, 0.000, 0.000, 0.000, 13:52:09.943
12, -3317.66, -3267.83, -3267.89, -3712.74, 0.000, 0.000, 0.000, 13:52:09.943
13, -3323.24, -3272.61, -3270.99, -3720.27, 0.000, 0.000, 0.000, 13:52:09.943
14, -3326.29, -3276.04, -3280.41, -3721.36, 0.000, 0.000, 0.000, 13:52:09.943
15, -3323.60, -3267.82, -3278.17, -3711.45, 0.000, 0.000, 0.000, 13:52:09.967
16, -3328.11, -3274.02, -3277.72, -3719.84, 0.000, 0.000, 0.000, 13:52:09.967
17, -3316.46, -3257.48, -3262.27, -3701.26, 0.000, 0.000, 0.000, 13:52:09.968
18, -3326.93, -3278.58, -3283.77, -3720.22, 0.000, 0.000, 0.000, 13:52:09.968
19, -3336.45, -3282.83, -3287.95, -3722.00, 0.000, 0.000, 0.000, 13:52:09.973
20, -3333.05, -3272.98, -3289.13, -3719.50, 0.000, 0.000, 0.000, 13:52:09.973
21, -3337.71, -3270.26, -3281.50, -3714.88, 0.000, 0.000, 0.000, 13:52:09.992
22, -3335.77, -3279.90, -3281.94, -3711.22, 0.000, 0.000, 0.000, 13:52:09.992
23, -3342.25, -3280.33, -3294.95, -3714.18, 0.000, 0.000, 0.000, 13:52:09.993
24, -3351.16, -3287.27, -3296.07, -3724.65, 0.000, 0.000, 0.000, 13:52:09.993
25, -3347.90, -3281.62, -3277.48, -3717.22, 0.000, 0.000, 0.000, 13:52:10.021
26, -3350.64, -3284.89, -3281.67, -3721.21, 0.000, 0.000, 0.000, 13:52:10.021
27, -3346.42, -3277.16, -3283.55, -3717.92, 0.000, 0.000, 0.000, 13:52:10.022
28, -3345.18, -3276.26, -3280.63, -3715.50, 0.000, 0.000, 0.000, 13:52:10.022
29, -3343.10, -3281.57, -3284.54, -3719.81, 0.000, 0.000, 0.000, 13:52:10.022
30, -3351.77, -3280.80, -3284.84, -3712.53, 0.000, 0.000, 0.000, 13:52:10.022
31, -3348.53, -3287.86, -3286.38, -3715.52, 0.000, 0.000, 0.000, 13:52:10.033
32, -3349.95, -3281.59, -3291.64, -3727.51, 0.000, 0.000, 0.000, 13:52:10.033
33, -3357.24, -3279.03, -3283.40, -3719.30, 0.000, 0.000, 0.000, 13:52:10.048
34, -3353.66, -3281.62, -3282.81, -3727.56, 0.000, 0.000, 0.000, 13:52:10.048
35, -3350.51, -3286.61, -3290.54, -3724.56, 0.000, 0.000, 0.000, 13:52:10.048
36, -3363.38, -3287.40, -3298.80, -3731.11, 0.000, 0.000, 0.000, 13:52:10.048
37, -3352.21, -3283.45, -3278.37, -3717.15, 0.000, 0.000, 0.000, 13:52:10.063
38, -3350.01, -3283.59, -3283.83, -3725.09, 0.000, 0.000, 0.000, 13:52:10.064
39, -3354.77, -3285.33, -3294.70, -3723.93, 0.000, 0.000, 0.000, 13:52:10.080
40, -3355.36, -3289.46, -3294.08, -3724.16, 0.000, 0.000, 0.000, 13:52:10.081
41, -3345.80, -3276.18, -3284.44, -3714.13, 0.000, 0.000, 0.000, 13:52:10.081
42, -3359.11, -3292.10, -3297.88, -3717.71, 0.000, 0.000, 0.000, 13:52:10.081
43, -3352.35, -3285.89, -3285.00, -3709.07, 0.000, 0.000, 0.000, 13:52:10.101
44, -3340.22, -3277.43, -3281.03, -3717.28, 0.000, 0.000, 0.000, 13:52:10.101
45, -3333.31, -3275.54, -3267.27, -3703.65, 0.000, 0.000, 0.000, 13:52:10.108
46, -3346.31, -3281.40, -3271.66, -3712.57, 0.000, 0.000, 0.000, 13:52:10.108
47, -3343.60, -3281.30, -3267.29, -3717.57, 0.000, 0.000, 0.000, 13:52:10.108
48, -3343.22, -3279.87, -3274.51, -3712.40, 0.000, 0.000, 0.000, 13:52:10.108
49, -3350.45, -3279.10, -3275.82, -3708.46, 0.000, 0.000, 0.000, 13:52:10.131
50, -3347.69, -3278.24, -3274.80, -3708.40, 0.000, 0.000, 0.000, 13:52:10.131
51, -3347.56, -3275.75, -3275.22, -3719.12, 0.000, 0.000, 0.000, 13:52:10.138
52, -3348.48, -3274.36, -3270.92, -3721.96, 0.000, 0.000, 0.000, 13:52:10.139
53, -3342.90, -3279.98, -3271.43, -3717.45, 0.000, 0.000, 0.000, 13:52:10.149
54, -3340.90, -3267.41, -3270.21, -3709.23, 0.000, 0.000, 0.000, 13:52:10.149
55, -3343.98, -3274.41, -3275.43, -3702.31, 0.000, 0.000, 0.000, 13:52:10.153
56, -3346.50, -3272.51, -3271.32, -3704.84, 0.000, 0.000, 0.000, 13:52:10.153
57, -3342.70, -3275.59, -3276.83, -3709.98, 0.000, 0.000, 0.000, 13:52:10.185
58, -3346.28, -3276.39, -3284.22, -3711.73, 0.000, 0.000, 0.000, 13:52:10.185
59, -3350.34, -3281.03, -3281.08, -3720.41, 0.000, 0.000, 0.000, 13:52:10.185
60, -3357.57, -3276.70, -3280.01, -3715.56, 0.000, 0.000, 0.000, 13:52:10.186
61, -3354.86, -3280.24, -3283.31, -3716.37, 0.000, 0.000, 0.000, 13:52:10.186
62, -3360.26, -3284.23, -3275.98, -3718.41, 0.000, 0.000, 0.000, 13:52:10.186
63, -3343.08, -3274.21, -3264.11, -3710.87, 0.000, 0.000, 0.000, 13:52:10.186
64, -3352.39, -3285.24, -3276.59, -3723.60, 0.000, 0.000, 0.000, 13:52:10.186
65, -3359.40, -3292.10, -3293.94, -3719.30, 0.000, 0.000, 0.000, 13:52:10.198
66, -3352.33, -3289.66, -3286.47, -3716.66, 0.000, 0.000, 0.000, 13:52:10.198
67, -3353.13, -3274.14, -3278.47, -3709.96, 0.000, 0.000, 0.000, 13:52:10.216
68, -3339.55, -3271.08, -3275.04, -3720.03, 0.000, 0.000, 0.000, 13:52:10.216
69, -3346.74, -3270.86, -3280.64, -3720.79, 0.000, 0.000, 0.000, 13:52:10.232
70, -3338.77, -3274.62, -3275.91, -3721.77, 0.000, 0.000, 0.000, 13:52:10.233
71, -3343.46, -3269.48, -3275.54, -3713.33, 0.000, 0.000, 0.000, 13:52:10.233
72, -3342.59, -3265.95, -3279.27, -3722.22, 0.000, 0.000, 0.000, 13:52:10.233
73, -3339.09, -3267.36, -3269.80, -3712.59, 0.000, 0.000, 0.000, 13:52:10.243
74, -3348.50, -3278.70, -3292.40, -3725.66, 0.000, 0.000, 0.000, 13:52:10.243
75, -3342.40, -3267.58, -3275.74, -3698.68, 0.000, 0.000, 0.000, 13:52:10.258
76, -3334.32, -3265.75, -3264.73, -3696.64, 0.000, 0.000, 0.000, 13:52:10.258
77, -3346.60, -3270.49, -3285.09, -3717.26, 0.000, 0.000, 0.000, 13:52:10.258
78, -3350.82, -3285.70, -3289.26, -3718.37, 0.000, 0.000, 0.000, 13:52:10.258
79, -3353.42, -3283.84, -3285.49, -3720.28, 0.000, 0.000, 0.000, 13:52:10.278
80, -3352.39, -3276.82, -3285.87, -3711.86, 0.000, 0.000, 0.000, 13:52:10.278
81, -3346.08, -3267.40, -3276.87, -3701.08, 0.000, 0.000, 0.000, 13:52:10.288
82, -3354.69, -3277.88, -3282.35, -3711.93, 0.000, 0.000, 0.000, 13:52:10.288
83, -3361.43, -3290.10, -3287.12, -3710.17, 0.000, 0.000, 0.000, 13:52:10.289
84, -3347.78, -3278.23, -3269.39, -3698.33, 0.000, 0.000, 0.000, 13:52:10.289
85, -3353.49, -3276.89, -3272.83, -3696.07, 0.000, 0.000, 0.000, 13:52:10.303
86, -3355.80, -3273.74, -3278.57, -3703.15, 0.000, 0.000, 0.000, 13:52:10.303
87, -3355.10, -3274.61, -3277.67, -3723.25, 0.000, 0.000, 0.000, 13:52:10.318
88, -3351.42, -3265.93, -3273.29, -3715.00, 0.000, 0.000, 0.000, 13:52:10.318
89, -3336.59, -3259.38, -3274.95, -3715.04, 0.000, 0.000, 0.000, 13:52:10.318
90, -3330.07, -3247.65, -3261.82, -3712.16, 0.000, 0.000, 0.000, 13:52:10.338
91, -3338.78, -3257.69, -3278.32, -3718.64, 0.000, 0.000, 0.000, 13:52:10.339
92, -3338.92, -3258.36, -3283.07, -3732.65, 0.000, 0.000, 0.000, 13:52:10.339
93, -3335.21, -3259.17, -3279.87, -3728.16, 0.000, 0.000, 0.000, 13:52:10.348
94, -3325.84, -3251.84, -3266.46, -3711.00, 0.000, 0.000, 0.000, 13:52:10.348
95, -3340.22, -3262.34, -3265.53, -3714.52, 0.000, 0.000, 0.000, 13:52:10.348
96, -3337.99, -3256.15, -3262.34, -3712.97, 0.000, 0.000, 0.000, 13:52:10.348
97, -3354.43, -3273.88, -3286.89, -3725.21, 0.000, 0.000, 0.000, 13:52:10.363
98, -3342.80, -3273.17, -3277.93, -3707.54, 0.000, 0.000, 0.000, 13:52:10.363
99, -3348.55, -3286.01, -3282.15, -3718.10, 0.000, 0.000, 0.000, 13:52:10.378
100, -3357.23, -3286.28, -3291.12, -3722.41, 0.000, 0.000, 0.000, 13:52:10.378
101, -3346.72, -3278.91, -3279.12, -3713.58, 0.000, 0.000, 0.000, 13:52:10.378
102, -3353.18, -3295.58, -3280.86, -3714.72, 0.000, 0.000, 0.000, 13:52:10.379
103, -3340.37, -3274.51, -3276.26, -3703.25, 0.000, 0.000, 0.000, 13:52:10.394
104, -3349.56, -3281.18, -3282.92, -3712.10, 0.000, 0.000, 0.000, 13:52:10.394
105, -3339.55, -3269.61, -3270.30, -3705.05, 0.000, 0.000, 0.000, 13:52:10.409
106, -3347.27, -3278.01, -3274.85, -3703.74, 0.000, 0.000, 0.000, 13:52:10.409
107, -3338.67, -3278.33, -3280.00, -3706.81, 0.000, 0.000, 0.000, 13:52:10.422
108, -3347.73, -3290.21, -3277.22, -3721.69, 0.000, 0.000, 0.000, 13:52:10.423
109, -3338.44, -3277.20, -3281.05, -3716.99, 0.000, 0.000, 0.000, 13:52:10.424
110, -3341.82, -3282.80, -3285.17, -3716.04, 0.000, 0.000, 0.000, 13:52:10.424
111, -3345.53, -3278.95, -3271.50, -3712.55, 0.000, 0.000, 0.000, 13:52:10.437
112, -3355.37, -3286.97, -3276.93, -3721.31, 0.000, 0.000, 0.000, 13:52:10.438
113, -3341.41, -3274.54, -3268.76, -3708.22, 0.000, 0.000, 0.000, 13:52:10.438
114, -3345.20, -3274.82, -3282.15, -3716.71, 0.000, 0.000, 0.000, 13:52:10.439
115, -3337.57, -3275.20, -3281.02, -3707.09, 0.000, 0.000, 0.000, 13:52:10.453
116, -3342.52, -3275.76, -3278.10, -3708.90, 0.000, 0.000, 0.000, 13:52:10.453
117, -3334.63, -3265.88, -3264.16, -3704.04, 0.000, 0.000, 0.000, 13:52:10.467
118, -3351.12, -3284.73, -3283.74, -3726.40, 0.000, 0.000, 0.000, 13:52:10.470
119, -3358.69, -3297.09, -3283.50, -3728.14, 0.000, 0.000, 0.000, 13:52:10.471
120, -3354.53, -3279.23, -3277.09, -3716.21, 0.000, 0.000, 0.000, 13:52:10.471
121, -3345.46, -3280.91, -3281.96, -3722.61, 0.000, 0.000, 0.000, 13:52:10.488
122, -3338.74, -3276.94, -3281.32, -3709.34, 0.000, 0.000, 0.000, 13:52:10.488
123, -3346.64, -3275.77, -3278.10, -3713.72, 0.000, 0.000, 0.000, 13:52:10.507
124, -3351.80, -3285.40, -3287.13, -3724.90, 0.000, 0.000, 0.000, 13:52:10.508
125, -3351.31, -3276.36, -3287.69, -3716.97, 0.000, 0.000, 0.000, 13:52:10.508
126, -3332.58, -3265.73, -3277.25, -3705.95, 0.000, 0.000, 0.000, 13:52:10.508
127, -3334.29, -3266.04, -3272.39, -3705.03, 0.000, 0.000, 0.000, 13:52:10.839
128, -3333.65, -3271.25, -3271.01, -3707.04, 0.000, 0.000, 0.000, 13:52:10.839
129, -3330.50, -3258.19, -3261.57, -3700.79, 0.000, 0.000, 0.000, 13:52:10.855
130, -3344.49, -3273.75, -3279.15, -3724.74, 0.000, 0.000, 0.000, 13:52:10.855
131, -3337.02, -3273.88, -3282.24, -3711.69, 0.000, 0.000, 0.000, 13:52:10.855
132, -3344.85, -3274.68, -3273.14, -3718.14, 0.000, 0.000, 0.000, 13:52:10.855
133, -3334.00, -3260.70, -3268.89, -3708.77, 0.000, 0.000, 0.000, 13:52:10.867
134, -3330.54, -3256.15, -3263.28, -3694.53, 0.000, 0.000, 0.000, 13:52:10.867
135, -3338.28, -3266.37, -3257.73, -3702.43, 0.000, 0.000, 0.000, 13:52:10.877
136, -3338.83, -3275.06, -3264.14, -3722.28, 0.000, 0.000, 0.000, 13:52:10.877
137, -3360.81, -3292.42, -3286.29, -3729.68, 0.000, 0.000, 0.000, 13:52:10.877
138, -3357.81, -3287.72, -3288.63, -3721.06, 0.000, 0.000, 0.000, 13:52:10.877
139, -3344.76, -3271.94, -3271.91, -3711.50, 0.000, 0.000, 0.000, 13:52:10.975
140, -3363.55, -3294.67, -3295.73, -3729.66, 0.000, 0.000, 0.000, 13:52:10.975
141, -3356.16, -3283.10, -3291.27, -3735.34, 0.000, 0.000, 0.000, 13:52:10.976
142, -3345.80, -3275.88, -3285.30, -3718.28, 0.000, 0.000, 0.000, 13:52:10.976
143, -3354.04, -3277.51, -3287.27, -3723.25, 0.000, 0.000, 0.000, 13:52:10.977
144, -3353.82, -3285.20, -3288.31, -3738.35, 0.000, 0.000, 0.000, 13:52:10.977
145, -3362.71, -3293.29, -3296.90, -3744.58, 0.000, 0.000, 0.000, 13:52:10.977
146, -3347.27, -3276.97, -3283.02, -3718.32, 0.000, 0.000, 0.000, 13:52:10.977
147, -3361.86, -3288.40, -3293.73, -3730.93, 0.000, 0.000, 0.000, 13:52:10.977
148, -3366.89, -3297.86, -3302.60, -3736.42, 0.000, 0.000, 0.000, 13:52:10.977
149, -3355.14, -3280.15, -3295.70, -3729.33, 0.000, 0.000, 0.000, 13:52:10.978
150, -3356.63, -3292.98, -3305.28, -3726.57, 0.000, 0.000, 0.000, 13:52:10.978
151, -3357.68, -3295.29, -3294.32, -3725.39, 0.000, 0.000, 0.000, 13:52:10.978
152, -3358.42, -3284.05, -3282.78, -3718.39, 0.000, 0.000, 0.000, 13:52:10.978
153, -3350.19, -3280.23, -3274.90, -3707.09, 0.000, 0.000, 0.000, 13:52:10.978
154, -3362.45, -3290.46, -3290.02, -3720.47, 0.000, 0.000, 0.000, 13:52:10.978
155, -3353.82, -3288.00, -3280.95, -3713.47, 0.000, 0.000, 0.000, 13:52:10.979
156, -3358.84, -3283.16, -3285.09, -3719.54, 0.000, 0.000, 0.000, 13:52:10.979
157, -3356.82, -3277.56, -3286.12, -3723.59, 0.000, 0.000, 0.000, 13:52:10.979
158, -3355.87, -3284.81, -3276.16, -3722.94, 0.000, 0.000, 0.000, 13:52:10.979
159, -3355.78, -3282.28, -3286.13, -3725.41, 0.000, 0.000, 0.000, 13:52:10.979
160, -3352.81, -3279.75, -3279.24, -3729.99, 0.000, 0.000, 0.000, 13:52:10.980
161, -3344.73, -3280.57, -3276.66, -3726.92, 0.000, 0.000, 0.000, 13:52:10.980
162, -3350.74, -3281.17, -3283.41, -3731.68, 0.000, 0.000, 0.000, 13:52:10.980
163, -3352.70, -3287.11, -3288.63, -3733.41, 0.000, 0.000, 0.000, 13:52:10.980
164, -3346.19, -3286.25, -3281.98, -3728.92, 0.000, 0.000, 0.000, 13:52:10.980
165, -3350.82, -3281.22, -3282.78, -3726.40, 0.000, 0.000, 0.000, 13:52:10.980
166, -3341.83, -3269.91, -3260.76, -3698.18, 0.000, 0.000, 0.000, 13:52:10.981
167, -3343.94, -3279.18, -3271.35, -3704.51, 0.000, 0.000, 0.000, 13:52:10.981
168, -3355.61, -3286.07, -3281.18, -3712.82, 0.000, 0.000, 0.000, 13:52:10.981
169, -3350.48, -3279.19, -3274.15, -3702.45, 0.000, 0.000, 0.000, 13:52:10.981
170, -3365.78, -3305.63, -3296.27, -3720.43, 0.000, 0.000, 0.000, 13:52:10.981
171, -3364.29, -3293.78, -3290.84, -3723.59, 0.000, 0.000, 0.000, 13:52:10.982
172, -3356.91, -3280.96, -3280.17, -3713.00, 0.000, 0.000, 0.000, 13:52:10.982
173, -3354.16, -3285.31, -3283.90, -3716.76, 0.000, 0.000, 0.000, 13:52:10.982
174, -3350.14, -3285.82, -3274.87, -3709.48, 0.000, 0.000, 0.000, 13:52:10.982
175, -3353.21, -3288.27, -3277.57, -3722.23, 0.000, 0.000, 0.000, 13:52:10.982
176, -3354.97, -3289.83, -3285.15, -3729.12, 0.000, 0.000, 0.000, 13:52:10.982
177, -3356.66, -3291.50, -3295.32, -3729.04, 0.000, 0.000, 0.000, 13:52:10.983
178, -3349.53, -3284.02, -3285.69, -3719.07, 0.000, 0.000, 0.000, 13:52:10.983
179, -3347.86, -3283.84, -3278.78, -3719.10, 0.000, 0.000, 0.000, 13:52:10.983
180, -3361.19, -3278.75, -3288.74, -3717.65, 0.000, 0.000, 0.000, 13:52:10.983
181, -3352.85, -3277.08, -3284.00, -3721.31, 0.000, 0.000, 0.000, 13:52:10.993
182, -3351.12, -3264.89, -3275.77, -3717.82, 0.000, 0.000, 0.000, 13:52:10.993
183, -3344.98, -3274.21, -3270.94, -3704.96, 0.000, 0.000, 0.000, 13:52:10.994
184, -3350.33, -3276.36, -3285.60, -3717.09, 0.000, 0.000, 0.000, 13:52:10.994
185, -3348.33, -3267.02, -3275.71, -3715.53, 0.000, 0.000, 0.000, 13:52:10.994
186, -3357.23, -3270.47, -3283.21, -3713.66, 0.000, 0.000, 0.000, 13:52:10.994
187, -3356.32, -3273.29, -3280.93, -3711.81, 0.000, 0.000, 0.000, 13:52:11.278
188, -3358.91, -3281.96, -3288.09, -3721.25, 0.000, 0.000, 0.000, 13:52:11.279
189, -3353.82, -3278.41, -3286.45, -3710.97, 0.000, 0.000, 0.000, 13:52:11.279
190, -3361.94, -3288.23, -3295.26, -3716.34, 0.000, 0.000, 0.000, 13:52:11.279
191, -3364.63, -3288.77, -3283.63, -3716.36, 0.000, 0.000, 0.000, 13:52:11.279
192, -3359.69, -3286.98, -3287.52, -3714.16, 0.000, 0.000, 0.000, 13:52:11.279
193, -3359.02, -3288.70, -3283.55, -3718.98, 0.000, 0.000, 0.000, 13:52:11.279
194, -3360.91, -3291.44, -3287.56, -3719.33, 0.000, 0.000, 0.000, 13:52:11.280
195, -3357.54, -3280.74, -3277.53, -3715.93, 0.000, 0.000, 0.000, 13:52:11.295
196, -3360.95, -3285.30, -3282.42, -3728.55, 0.000, 0.000, 0.000, 13:52:11.295
197, -3351.46, -3282.73, -3277.95, -3731.73, 0.000, 0.000, 0.000, 13:52:11.295
198, -3346.19, -3287.55, -3270.99, -3718.33, 0.000, 0.000, 0.000, 13:52:11.296
199, -3357.72, -3293.00, -3281.49, -3734.99, 0.000, 0.000, 0.000, 13:52:11.310
200, -3347.37, -3289.18, -3280.17, -3733.45, 0.000, 0.000, 0.000, 13:52:11.310
0, -3349.63, -3280.27, -3283.90, -3723.92, 0.000, 0.000, 0.000, 13:52:11.310
1, -3351.56, -3279.96, -3280.44, -3715.72, 0.000, 0.000, 0.000, 13:52:11.310
2, -3342.62, -3275.14, -3275.01, -3711.70, 0.000, 0.000, 0.000, 13:52:11.310
3, -3345.02, -3267.80, -3274.32, -3712.89, 0.000, 0.000, 0.000, 13:52:11.311
4, -3348.85, -3274.27, -3285.21, -3708.67, 0.000, 0.000, 0.000, 13:52:11.311
5, -3342.65, -3269.36, -3271.45, -3704.62, 0.000, 0.000, 0.000, 13:52:11.311
6, -3345.33, -3273.42, -3277.40, -3699.26, 0.000, 0.000, 0.000, 13:52:11.311
7, -3346.33, -3270.71, -3275.00, -3707.54, 0.000, 0.000, 0.000, 13:52:11.311
8, -3344.30, -3270.23, -3267.97, -3707.59, 0.000, 0.000, 0.000, 13:52:11.311
9, -3353.25, -3277.84, -3280.08, -3724.08, 0.000, 0.000, 0.000, 13:52:11.312
10, -3352.21, -3274.88, -3272.58, -3712.24, 0.000, 0.000, 0.000, 13:52:11.312
11, -3337.64, -3264.58, -3269.16, -3706.55, 0.000, 0.000, 0.000, 13:52:11.312
12, -3346.96, -3274.27, -3270.92, -3718.75, 0.000, 0.000, 0.000, 13:52:11.312
13, -3346.39, -3279.59, -3271.46, -3718.91, 0.000, 0.000, 0.000, 13:52:11.312
14, -3348.41, -3272.54, -3275.89, -3707.99, 0.000, 0.000, 0.000, 13:52:11.312
15, -3340.29, -3273.76, -3286.24, -3717.66, 0.000, 0.000, 0.000, 13:52:11.312
16, -3340.90, -3269.22, -3270.83, -3712.84, 0.000, 0.000, 0.000, 13:52:11.313
17, -3339.54, -3268.71, -3271.60, -3706.69, 0.000, 0.000, 0.000, 13:52:11.313
18, -3341.92, -3267.43, -3274.47, -3709.30, 0.000, 0.000, 0.000, 13:52:11.313
19, -3335.95, -3263.12, -3271.79, -3711.34, 0.000, 0.000, 0.000, 13:52:11.313
20, -3335.93, -3266.33, -3267.60, -3716.97, 0.000, 0.000, 0.000, 13:52:11.313
21, -3347.35, -3276.02, -3273.04, -3711.54, 0.000, 0.000, 0.000, 13:52:11.313
22, -3354.03, -3280.54, -3282.05, -3717.82, 0.000, 0.000, 0.000, 13:52:11.314
23, -3345.38, -3277.15, -3277.22, -3714.35, 0.000, 0.000, 0.000, 13:52:11.314
24, -3348.07, -3273.24, -3278.17, -3707.07, 0.000, 0.000, 0.000, 13:52:11.314
25, -3346.57, -3278.03, -3281.67, -3707.47, 0.000, 0.000, 0.000, 13:52:11.314
26, -3346.96, -3271.70, -3281.19, -3706.55, 0.000, 0.000, 0.000, 13:52:11.314
27, -3346.74, -3274.80, -3277.49, -3724.16, 0.000, 0.000, 0.000, 13:52:11.314
28, -3345.35, -3270.34, -3282.18, -3711.48, 0.000, 0.000, 0.000, 13:52:11.314
29, -3354.78, -3279.20, -3278.64, -3715.73, 0.000, 0.000, 0.000, 13:52:11.314
30, -3346.46, -3276.69, -3273.59, -3705.54, 0.000, 0.000, 0.000, 13:52:11.315
31, -3342.81, -3271.74, -3280.03, -3698.33, 0.000, 0.000, 0.000, 13:52:11.315
32, -3352.74, -3273.58, -3287.18, -3711.24, 0.000, 0.000, 0.000, 13:52:11.315
33, -3357.63, -3285.20, -3287.28, -3713.97, 0.000, 0.000, 0.000, 13:52:11.315
34, -3356.07, -3282.64, -3282.63, -3720.47, 0.000, 0.000, 0.000, 13:52:11.315
35, -3356.32, -3281.18, -3275.53, -3712.82, 0.000, 0.000, 0.000, 13:52:11.315
36, -3350.56, -3265.76, -3279.18, -3702.89, 0.000, 0.000, 0.000, 13:52:11.316
37, -3350.02, -3267.12, -3280.32, -3699.18, 0.000, 0.000, 0.000, 13:52:11.316
38, -3356.23, -3283.25, -3285.46, -3718.89, 0.000, 0.000, 0.000, 13:52:11.316
39, -3352.99, -3282.77, -3283.68, -3728.40, 0.000, 0.000, 0.000, 13:52:11.316
40, -3337.92, -3269.73, -3269.17, -3711.14, 0.000, 0.000, 0.000, 13:52:11.316
41, -3344.86, -3278.55, -3276.74, -3708.43, 0.000, 0.000, 0.000, 13:52:11.316
42, -3350.61, -3280.76, -3275.73, -3714.03, 0.000, 0.000, 0.000, 13:52:11.316
43, -3343.68, -3274.11, -3274.26, -3711.11, 0.000, 0.000, 0.000, 13:52:11.316
44, -3344.01, -3274.82, -3281.19, -3722.92, 0.000, 0.000, 0.000, 13:52:11.317
45, -3350.34, -3277.01, -3280.02, -3713.09, 0.000, 0.000, 0.000, 13:52:11.317
46, -3351.67, -3286.56, -3283.11, -3712.39, 0.000, 0.000, 0.000, 13:52:11.317
47, -3355.01, -3279.89, -3280.48, -3715.60, 0.000, 0.000, 0.000, 13:52:11.317
48, -3356.47, -3282.22, -3287.23, -3716.07, 0.000, 0.000, 0.000, 13:52:11.317
49, -3365.62, -3287.72, -3293.77, -3721.26, 0.000, 0.000, 0.000, 13:52:11.317
50, -3361.61, -3291.01, -3289.85, -3725.25, 0.000, 0.000, 0.000, 13:52:11.317
51, -3357.58, -3290.78, -3288.93, -3716.95, 0.000, 0.000, 0.000, 13:52:11.318
52, -3356.71, -3283.34, -3288.48, -3713.57, 0.000, 0.000, 0.000, 13:52:11.318
53, -3360.00, -3287.13, -3289.50, -3716.50, 0.000, 0.000, 0.000, 13:52:11.318
54, -3356.70, -3287.77, -3290.78, -3726.60, 0.000, 0.000, 0.000, 13:52:11.318
55, -3362.65, -3286.59, -3284.74, -3716.94, 0.000, 0.000, 0.000, 13:52:11.318
56, -3355.60, -3278.82, -3278.35, -3731.66, 0.000, 0.000, 0.000, 13:52:11.318
57, -3350.60, -3276.05, -3282.13, -3720.08, 0.000, 0.000, 0.000, 13:52:11.318
58, -3354.37, -3280.97, -3282.27, -3720.13, 0.000, 0.000, 0.000, 13:52:11.319
59, -3360.85, -3288.73, -3290.87, -3722.78, 0.000, 0.000, 0.000, 13:52:11.319
60, -3359.60, -3279.31, -3289.94, -3717.65, 0.000, 0.000, 0.000, 13:52:11.319
61, -3363.71, -3287.59, -3292.32, -3721.63, 0.000, 0.000, 0.000, 13:52:11.319
62, -3357.19, -3288.00, -3278.13, -3723.48, 0.000, 0.000, 0.000, 13:52:11.319
63, -3354.47, -3288.61, -3284.85, -3727.30, 0.000, 0.000, 0.000, 13:52:11.319
64, -3352.24, -3279.17, -3282.79, -3726.26, 0.000, 0.000, 0.000, 13:52:11.319
65, -3350.55, -3282.17, -3276.90, -3721.21, 0.000, 0.000, 0.000, 13:52:11.320
66, -3347.46, -3278.81, -3280.32, -3723.16, 0.000, 0.000, 0.000, 13:52:11.320
67, -3346.24, -3279.13, -3286.96, -3719.61, 0.000, 0.000, 0.000, 13:52:11.320
68, -3354.08, -3277.50, -3287.45, -3719.78, 0.000, 0.000, 0.000, 13:52:11.320
69, -3346.88, -3277.89, -3281.49, -3711.81, 0.000, 0.000, 0.000, 13:52:11.320
70, -3338.85, -3265.65, -3277.64, -3713.92, 0.000, 0.000, 0.000, 13:52:11.320
71, -3342.74, -3264.54, -3277.95, -3718.76, 0.000, 0.000, 0.000, 13:52:11.321
72, -3347.25, -3271.19, -3278.70, -3715.11, 0.000, 0.000, 0.000, 13:52:11.321
73, -3353.59, -3275.85, -3282.04, -3720.71, 0.000, 0.000, 0.000, 13:52:11.321
74, -3351.71, -3282.39, -3290.98, -3721.88, 0.000, 0.000, 0.000, 13:52:11.321
75, -3348.41, -3278.98, -3284.49, -3724.44, 0.000, 0.000, 0.000, 13:52:11.321
76, -3347.34, -3276.91, -3286.51, -3715.98, 0.000, 0.000, 0.000, 13:52:11.322
77, -3348.06, -3273.98, -3277.74, -3716.00, 0.000, 0.000, 0.000, 13:52:11.322
78, -3343.74, -3267.64, -3272.87, -3710.71, 0.000, 0.000, 0.000, 13:52:11.322
79, -3349.33, -3279.37, -3292.29, -3721.22, 0.000, 0.000, 0.000, 13:52:11.322
80, -3348.70, -3276.09, -3281.77, -3722.34, 0.000, 0.000, 0.000, 13:52:11.322
81, -3349.97, -3271.45, -3286.04, -3720.15, 0.000, 0.000, 0.000, 13:52:11.322
82, -3345.16, -3276.41, -3274.00, -3719.03, 0.000, 0.000, 0.000, 13:52:11.322
83, -3351.29, -3274.30, -3279.47, -3716.53, 0.000, 0.000, 0.000, 13:52:11.323
84, -3348.50, -3278.15, -3283.94, -3717.03, 0.000, 0.000, 0.000, 13:52:11.323
85, -3352.51, -3277.02, -3281.35, -3712.71, 0.000, 0.000, 0.000, 13:52:11.323
86, -3351.21, -3274.92, -3274.06, -3709.76, 0.000, 0.000, 0.000, 13:52:11.323
87, -3347.04, -3274.61, -3275.48, -3715.17, 0.000, 0.000, 0.000, 13:52:11.323
88, -3345.79, -3267.72, -3258.24, -3699.89, 0.000, 0.000, 0.000, 13:52:11.323
89, -3347.98, -3283.32, -3269.66, -3710.05, 0.000, 0.000, 0.000, 13:52:11.346
90, -3344.99, -3281.39, -3265.88, -3709.56, 0.000, 0.000, 0.000, 13:52:11.346
91, -3342.56, -3273.60, -3269.64, -3711.45, 0.000, 0.000, 0.000, 13:52:11.379
92, -3339.06, -3269.42, -3267.58, -3704.65, 0.000, 0.000, 0.000, 13:52:11.379
93, -3340.55, -3271.14, -3274.15, -3710.77, 0.000, 0.000, 0.000, 13:52:11.400
94, -3335.68, -3264.89, -3270.65, -3713.49, 0.000, 0.000, 0.000, 13:52:11.400
95, -3337.40, -3269.64, -3277.52, -3716.82, 0.000, 0.000, 0.000, 13:52:11.401
96, -3348.06, -3277.33, -3283.07, -3721.06, 0.000, 0.000, 0.000, 13:52:11.401
97, -3344.47, -3275.74, -3278.76, -3722.84, 0.000, 0.000, 0.000, 13:52:11.403
98, -3352.65, -3284.91, -3292.74, -3721.20, 0.000, 0.000, 0.000, 13:52:11.403
99, -3352.09, -3272.76, -3278.57, -3720.39, 0.000, 0.000, 0.000, 13:52:11.404
100, -3346.10, -3271.91, -3271.08, -3717.89, 0.000, 0.000, 0.000, 13:52:11.404
101, -3345.73, -3279.24, -3281.32, -3717.75, 0.000, 0.000, 0.000, 13:52:11.405
102, -3344.93, -3277.40, -3281.54, -3719.67, 0.000, 0.000, 0.000, 13:52:11.405
103, -3349.83, -3272.52, -3280.26, -3713.31, 0.000, 0.000, 0.000, 13:52:11.405
104, -3349.54, -3279.73, -3278.34, -3722.39, 0.000, 0.000, 0.000, 13:52:11.405
105, -3351.96, -3280.20, -3277.97, -3709.03, 0.000, 0.000, 0.000, 13:52:11.406
106, -3352.80, -3285.99, -3276.33, -3717.49, 0.000, 0.000, 0.000, 13:52:11.406
107, -3351.93, -3270.60, -3267.08, -3708.61, 0.000, 0.000, 0.000, 13:52:11.484
108, -3355.59, -3279.19, -3271.11, -3712.15, 0.000, 0.000, 0.000, 13:52:11.485
109, -3343.50, -3274.86, -3275.45, -3708.49, 0.000, 0.000, 0.000, 13:52:11.485
110, -3343.08, -3274.76, -3271.52, -3712.17, 0.000, 0.000, 0.000, 13:52:11.488
111, -3342.83, -3268.85, -3269.49, -3714.72, 0.000, 0.000, 0.000, 13:52:11.492
112, -3337.16, -3270.90, -3274.59, -3712.58, 0.000, 0.000, 0.000, 13:52:11.492
113, -3352.03, -3276.60, -3289.09, -3722.88, 0.000, 0.000, 0.000, 13:52:11.494
114, -3349.73, -3274.77, -3282.38, -3712.07, 0.000, 0.000, 0.000, 13:52:11.494
115, -3353.39, -3281.75, -3288.31, -3718.94, 0.000, 0.000, 0.000, 13:52:11.495
116, -3354.53, -3277.05, -3278.01, -3723.52, 0.000, 0.000, 0.000, 13:52:11.495
117, -3355.06, -3288.44, -3276.86, -3724.93, 0.000, 0.000, 0.000, 13:52:11.495
118, -3347.22, -3279.23, -3272.78, -3714.41, 0.000, 0.000, 0.000, 13:52:11.496
119, -3353.73, -3276.69, -3284.36, -3723.92, 0.000, 0.000, 0.000, 13:52:11.496
120, -3349.45, -3276.73, -3282.79, -3712.44, 0.000, 0.000, 0.000, 13:52:11.496
121, -3360.80, -3289.24, -3285.10, -3717.80, 0.000, 0.000, 0.000, 13:52:11.497
122, -3357.43, -3286.95, -3278.85, -3710.52, 0.000, 0.000, 0.000, 13:52:11.497
123, -3348.26, -3279.82, -3275.06, -3710.73, 0.000, 0.000, 0.000, 13:52:12.238
124, -3348.73, -3286.07, -3270.30, -3715.31, 0.000, 0.000, 0.000, 13:52:12.238
125, -3352.12, -3275.04, -3278.28, -3710.69, 0.000, 0.000, 0.000, 13:52:12.238
126, -3355.61, -3290.37, -3281.64, -3708.83, 0.000, 0.000, 0.000, 13:52:12.239
127, -3348.17, -3273.19, -3269.24, -3712.90, 0.000, 0.000, 0.000, 13:52:12.239
128, -3359.00, -3288.69, -3272.25, -3724.58, 0.000, 0.000, 0.000, 13:52:12.239
129, -3353.75, -3286.71, -3284.68, -3714.68, 0.000, 0.000, 0.000, 13:52:12.241
130, -3352.05, -3283.45, -3280.28, -3720.47, 0.000, 0.000, 0.000, 13:52:12.241
131, -3354.10, -3285.02, -3283.49, -3726.98, 0.000, 0.000, 0.000, 13:52:12.245
132, -3347.97, -3278.06, -3280.83, -3722.19, 0.000, 0.000, 0.000, 13:52:12.245
133, -3344.18, -3283.68, -3289.88, -3717.47, 0.000, 0.000, 0.000, 13:52:12.245
134, -3348.27, -3273.90, -3283.33, -3720.45, 0.000, 0.000, 0.000, 13:52:12.245
135, -3343.63, -3269.02, -3279.19, -3708.50, 0.000, 0.000, 0.000, 13:52:12.246
136, -3340.77, -3275.94, -3280.30, -3711.91, 0.000, 0.000, 0.000, 13:52:12.246
137, -3349.58, -3283.57, -3287.19, -3712.48, 0.000, 0.000, 0.000, 13:52:12.246
138, -3354.89, -3276.68, -3289.19, -3714.64, 0.000, 0.000, 0.000, 13:52:12.246
139, -3339.42, -3259.07, -3280.84, -3707.78, 0.000, 0.000, 0.000, 13:52:12.247
140, -3333.09, -3262.99, -3273.16, -3701.44, 0.000, 0.000, 0.000, 13:52:12.247
141, -3353.45, -3281.41, -3279.58, -3719.58, 0.000, 0.000, 0.000, 13:52:12.247
142, -3348.89, -3279.83, -3289.20, -3712.12, 0.000, 0.000, 0.000, 13:52:12.248
143, -3349.58, -3280.66, -3282.06, -3717.51, 0.000, 0.000, 0.000, 13:52:12.248
144, -3355.58, -3281.18, -3281.49, -3724.46, 0.000, 0.000, 0.000, 13:52:12.248
145, -3349.09, -3279.71, -3284.26, -3711.15, 0.000, 0.000, 0.000, 13:52:12.248
146, -3353.27, -3284.92, -3276.38, -3720.39, 0.000, 0.000, 0.000, 13:52:12.248
147, -3345.16, -3271.63, -3271.58, -3714.29, 0.000, 0.000, 0.000, 13:52:12.249
148, -3340.19, -3270.00, -3282.36, -3708.88, 0.000, 0.000, 0.000, 13:52:12.249
149, -3352.12, -3276.95, -3287.72, -3718.85, 0.000, 0.000, 0.000, 13:52:12.249
150, -3353.21, -3273.58, -3284.33, -3721.06, 0.000, 0.000, 0.000, 13:52:12.249
151, -3362.01, -3284.07, -3291.06, -3716.62, 0.000, 0.000, 0.000, 13:52:12.249
152, -3357.26, -3268.32, -3283.25, -3708.65, 0.000, 0.000, 0.000, 13:52:12.249
153, -3356.56, -3278.46, -3276.49, -3703.73, 0.000, 0.000, 0.000, 13:52:12.253
154, -3357.20, -3283.74, -3283.37, -3717.37, 0.000, 0.000, 0.000, 13:52:12.254
155, -3360.52, -3279.72, -3287.29, -3715.07, 0.000, 0.000, 0.000, 13:52:12.254
156, -3356.22, -3281.26, -3273.53, -3707.44, 0.000, 0.000, 0.000, 13:52:12.254
157, -3361.32, -3285.84, -3283.45, -3710.05, 0.000, 0.000, 0.000, 13:52:12.254
158, -3357.34, -3276.01, -3277.73, -3710.10, 0.000, 0.000, 0.000, 13:52:12.254
159, -3349.14, -3277.03, -3266.55, -3702.59, 0.000, 0.000, 0.000, 13:52:12.255
160, -3354.49, -3286.74, -3281.36, -3713.83, 0.000, 0.000, 0.000, 13:52:12.255
161, -3363.63, -3295.72, -3292.22, -3712.97, 0.000, 0.000, 0.000, 13:52:12.258
162, -3355.35, -3281.55, -3273.40, -3711.79, 0.000, 0.000, 0.000, 13:52:12.258
163, -3353.96, -3278.73, -3271.72, -3724.11, 0.000, 0.000, 0.000, 13:52:12.258
164, -3344.47, -3276.45, -3265.69, -3719.43, 0.000, 0.000, 0.000, 13:52:12.258
165, -3340.12, -3275.82, -3268.59, -3712.35, 0.000, 0.000, 0.000, 13:52:12.259
166, -3347.10, -3281.04, -3278.72, -3723.46, 0.000, 0.000, 0.000, 13:52:12.259
167, -3345.81, -3266.52, -3262.41, -3725.10, 0.000, 0.000, 0.000, 13:52:12.260
168, -3348.85, -3280.89, -3272.16, -3730.62, 0.000, 0.000, 0.000, 13:52:12.262
169, -3356.01, -3276.99, -3284.22, -3717.61, 0.000, 0.000, 0.000, 13:52:12.262
170, -3349.99, -3285.26, -3289.44, -3719.35, 0.000, 0.000, 0.000, 13:52:12.262
171, -3357.66, -3290.66, -3289.78, -3735.13, 0.000, 0.000, 0.000, 13:52:12.263
172, -3355.16, -3280.32, -3295.04, -3728.29, 0.000, 0.000, 0.000, 13:52:12.263
173, -3349.29, -3281.00, -3274.33, -3717.99, 0.000, 0.000, 0.000, 13:52:12.264
174, -3353.05, -3283.06, -3286.53, -3722.04, 0.000, 0.000, 0.000, 13:52:12.264
175, -3356.38, -3281.56, -3285.99, -3727.43, 0.000, 0.000, 0.000, 13:52:12.264
176, -3358.91, -3285.05, -3288.67, -3726.80, 0.000, 0.000, 0.000, 13:52:12.264
177, -3354.84, -3289.01, -3297.43, -3723.44, 0.000, 0.000, 0.000, 13:52:12.265
178, -3367.28, -3286.92, -3290.58, -3725.11, 0.000, 0.000, 0.000, 13:52:12.265
179, -3359.78, -3284.76, -3299.54, -3722.76, 0.000, 0.000, 0.000, 13:52:12.265
180, -3361.57, -3284.99, -3299.75, -3727.24, 0.000, 0.000, 0.000, 13:52:12.265
181, -3356.76, -3288.15, -3287.53, -3732.57, 0.000, 0.000, 0.000, 13:52:12.266
182, -3350.43, -3280.16, -3283.14, -3723.36, 0.000, 0.000, 0.000, 13:52:12.266
183, -3353.79, -3279.00, -3288.60, -3724.15, 0.000, 0.000, 0.000, 13:52:12.266
184, -3344.60, -3274.14, -3286.24, -3718.65, 0.000, 0.000, 0.000, 13:52:12.266
185, -3354.31, -3272.76, -3285.11, -3717.29, 0.000, 0.000, 0.000, 13:52:12.267
186, -3353.93, -3278.34, -3291.56, -3714.68, 0.000, 0.000, 0.000, 13:52:12.267
187, -3353.01, -3278.93, -3281.50, -3722.53, 0.000, 0.000, 0.000, 13:52:12.267
188, -3350.04, -3283.31, -3288.81, -3728.52, 0.000, 0.000, 0.000, 13:52:12.267
189, -3350.04, -3285.11, -3283.66, -3727.35, 0.000, 0.000, 0.000, 13:52:12.267
190, -3347.74, -3278.66, -3276.56, -3715.04, 0.000, 0.000, 0.000, 13:52:12.268
191, -3333.39, -3266.23, -3276.57, -3706.28, 0.000, 0.000, 0.000, 13:52:12.268
192, -3338.22, -3269.34, -3279.44, -3709.42, 0.000, 0.000, 0.000, 13:52:12.268
193, -3329.86, -3267.18, -3262.33, -3696.75, 0.000, 0.000, 0.000, 13:52:12.268
194, -3340.72, -3270.70, -3271.06, -3708.09, 0.000, 0.000, 0.000, 13:52:12.269
195, -3342.70, -3265.50, -3271.20, -3711.47, 0.000, 0.000, 0.000, 13:52:12.269
196, -3344.14, -3280.53, -3277.17, -3708.92, 0.000, 0.000, 0.000, 13:52:12.269
197, -3352.92, -3274.42, -3274.71, -3704.21, 0.000, 0.000, 0.000, 13:52:12.269
198, -3345.97, -3271.57, -3272.84, -3707.00, 0.000, 0.000, 0.000, 13:52:12.270
199, -3347.42, -3273.62, -3281.02, -3701.48, 0.000, 0.000, 0.000, 13:52:12.270
200, -3343.19, -3268.05, -3271.75, -3699.44, 0.000, 0.000, 0.000, 13:52:12.270
0, -3348.43, -3277.14, -3274.91, -3711.23, 0.000, 0.000, 0.000, 13:52:12.271
1, -3345.94, -3275.52, -3273.85, -3715.36, 0.000, 0.000, 0.000, 13:52:12.271
2, -3340.89, -3271.93, -3265.25, -3715.42, 0.000, 0.000, 0.000, 13:52:12.271
3, -3343.25, -3273.09, -3278.64, -3726.58, 0.000, 0.000, 0.000, 13:52:12.272
4, -3348.91, -3287.55, -3273.76, -3719.37, 0.000, 0.000, 0.000, 13:52:12.272
5, -3350.37, -3277.51, -3275.24, -3725.20, 0.000, 0.000, 0.000, 13:52:12.277
6, -3333.39, -3278.54, -3271.99, -3711.46, 0.000, 0.000, 0.000, 13:52:12.278
7, -3336.59, -3272.37, -3269.88, -3698.30, 0.000, 0.000, 0.000, 13:52:12.278
8, -3340.65, -3274.61, -3277.38, -3707.72, 0.000, 0.000, 0.000, 13:52:12.279
9, -3351.31, -3268.52, -3271.55, -3707.26, 0.000, 0.000, 0.000, 13:52:12.279
10, -3338.22, -3268.73, -3266.02, -3711.65, 0.000, 0.000, 0.000, 13:52:12.280
11, -3334.39, -3264.57, -3255.84, -3717.66, 0.000, 0.000, 0.000, 13:52:12.280
12, -3337.07, -3274.12, -3257.96, -3704.23, 0.000, 0.000, 0.000, 13:52:12.280
13, -3344.39, -3270.69, -3267.30, -3716.35, 0.000, 0.000, 0.000, 13:52:12.281
14, -3348.60, -3270.87, -3257.04, -3710.39, 0.000, 0.000, 0.000, 13:52:12.281
15, -3351.66, -3275.16, -3275.20, -3708.10, 0.000, 0.000, 0.000, 13:52:12.282
16, -3352.18, -3278.09, -3285.59, -3723.35, 0.000, 0.000, 0.000, 13:52:12.282
17, -3349.10, -3270.80, -3286.69, -3714.81, 0.000, 0.000, 0.000, 13:52:12.283
18, -3355.64, -3277.78, -3287.40, -3721.02, 0.000, 0.000, 0.000, 13:52:12.283
19, -3358.95, -3285.27, -3287.33, -3723.63, 0.000, 0.000, 0.000, 13:52:12.284
20, -3351.11, -3277.56, -3288.54, -3717.20, 0.000, 0.000, 0.000, 13:52:12.285
21, -3353.82, -3289.34, -3295.17, -3734.46, 0.000, 0.000, 0.000, 13:52:12.285
22, -3358.24, -3284.97, -3292.88, -3735.62, 0.000, 0.000, 0.000, 13:52:12.285
23, -3352.34, -3279.99, -3290.37, -3735.51, 0.000, 0.000, 0.000, 13:52:12.286
24, -3354.13, -3281.25, -3286.64, -3722.30, 0.000, 0.000, 0.000, 13:52:12.286
25, -3356.16, -3274.31, -3280.26, -3721.11, 0.000, 0.000, 0.000, 13:52:12.287
26, -3359.04, -3281.13, -3279.68, -3725.64, 0.000, 0.000, 0.000, 13:52:12.287
27, -3346.92, -3276.64, -3273.40, -3715.10, 0.000, 0.000, 0.000, 13:52:12.288
28, -3354.62, -3279.97, -3289.97, -3708.36, 0.000, 0.000, 0.000, 13:52:12.288
29, -3353.57, -3287.72, -3278.23, -3702.23, 0.000, 0.000, 0.000, 13:52:12.289
30, -3358.10, -3276.70, -3278.15, -3709.23, 0.000, 0.000, 0.000, 13:52:12.289
31, -3351.45, -3279.32, -3275.27, -3704.76, 0.000, 0.000, 0.000, 13:52:12.290
32, -3358.06, -3288.75, -3282.50, -3707.51, 0.000, 0.000, 0.000, 13:52:12.290
33, -3366.35, -3296.36, -3289.51, -3717.09, 0.000, 0.000, 0.000, 13:52:12.290
34, -3366.57, -3292.47, -3286.76, -3722.06, 0.000, 0.000, 0.000, 13:52:12.291
35, -3356.44, -3290.70, -3284.38, -3725.13, 0.000, 0.000, 0.000, 13:52:12.291
36, -3364.83, -3297.79, -3291.49, -3738.72, 0.000, 0.000, 0.000, 13:52:12.291
37, -3374.56, -3308.89, -3310.34, -3759.04, 0.000, 0.000, 0.000, 13:52:12.292
38, -3384.16, -3316.87, -3308.48, -3766.98, 0.000, 0.000, 0.000, 13:52:12.292
39, -3382.73, -3306.41, -3309.55, -3746.53, 0.000, 0.000, 0.000, 13:52:12.293
40, -3388.82, -3304.41, -3314.69, -3756.21, 0.000, 0.000, 0.000, 13:52:12.293
41, -3390.08, -3320.48, -3318.86, -3758.47, 0.000, 0.000, 0.000, 13:52:12.295
42, -3379.97, -3305.43, -3302.65, -3759.20, 0.000, 0.000, 0.000, 13:52:12.295
43, -3372.27, -3305.66, -3290.21, -3747.93, 0.000, 0.000, 0.000, 13:52:12.295
44, -3369.34, -3297.21, -3284.91, -3731.22, 0.000, 0.000, 0.000, 13:52:12.296
45, -3363.33, -3297.53, -3283.73, -3726.73, 0.000, 0.000, 0.000, 13:52:12.296
46, -3353.13, -3290.94, -3274.55, -3714.55, 0.000, 0.000, 0.000, 13:52:12.296
47, -3348.94, -3282.30, -3271.96, -3707.51, 0.000, 0.000, 0.000, 13:52:12.296
48, -3356.79, -3283.90, -3281.23, -3707.46, 0.000, 0.000, 0.000, 13:52:12.297
49, -3350.14, -3277.08, -3270.49, -3698.08, 0.000, 0.000, 0.000, 13:52:12.297
50, -3346.60, -3279.25, -3278.21, -3710.01, 0.000, 0.000, 0.000, 13:52:12.297
51, -3345.02, -3268.41, -3272.04, -3701.30, 0.000, 0.000, 0.000, 13:52:12.297
52, -3349.66, -3274.16, -3280.20, -3705.77, 0.000, 0.000, 0.000, 13:52:12.297
53, -3354.85, -3281.89, -3289.09, -3718.37, 0.000, 0.000, 0.000, 13:52:12.298
54, -3359.72, -3277.03, -3292.18, -3724.29, 0.000, 0.000, 0.000, 13:52:12.298
55, -3356.77, -3279.12, -3295.07, -3715.80, 0.000, 0.000, 0.000, 13:52:12.298
56, -3364.60, -3294.53, -3302.66, -3734.86, 0.000, 0.000, 0.000, 13:52:12.298
57, -3370.41, -3289.99, -3304.97, -3723.49, 0.000, 0.000, 0.000, 13:52:12.299
58, -3359.47, -3284.99, -3297.06, -3715.69, 0.000, 0.000, 0.000, 13:52:12.299
59, -3353.41, -3275.75, -3296.19, -3715.37, 0.000, 0.000, 0.000, 13:52:12.299
60, -3373.16, -3285.16, -3297.66, -3725.85, 0.000, 0.000, 0.000, 13:52:12.299
61, -3374.45, -3290.41, -3309.50, -3735.75, 0.000, 0.000, 0.000, 13:52:12.300
62, -3364.46, -3286.23, -3298.06, -3725.67, 0.000, 0.000, 0.000, 13:52:12.300
63, -3368.14, -3292.67, -3301.75, -3731.38, 0.000, 0.000, 0.000, 13:52:12.300
64, -3362.94, -3284.80, -3291.74, -3715.97, 0.000, 0.000, 0.000, 13:52:12.300
65, -3348.15, -3276.29, -3291.88, -3715.80, 0.000, 0.000, 0.000, 13:52:12.301
66, -3356.94, -3284.97, -3288.61, -3733.67, 0.000, 0.000, 0.000, 13:52:12.302
67, -3342.33, -3271.35, -3277.33, -3713.22, 0.000, 0.000, 0.000, 13:52:12.309
68, -3340.91, -3275.23, -3266.27, -3714.54, 0.000, 0.000, 0.000, 13:52:12.309
69, -3345.55, -3279.33, -3265.01, -3712.43, 0.000, 0.000, 0.000, 13:52:12.309
70, -3342.08, -3266.38, -3269.83, -3711.28, 0.000, 0.000, 0.000, 13:52:12.309
71, -3350.30, -3276.93, -3272.17, -3720.30, 0.000, 0.000, 0.000, 13:52:12.313
72, -3351.98, -3281.02, -3275.06, -3715.93, 0.000, 0.000, 0.000, 13:52:12.313
73, -3347.57, -3280.38, -3269.41, -3722.66, 0.000, 0.000, 0.000, 13:52:12.313
74, -3342.89, -3268.38, -3262.68, -3723.14, 0.000, 0.000, 0.000, 13:52:12.313
75, -3337.51, -3268.52, -3271.84, -3715.98, 0.000, 0.000, 0.000, 13:52:12.314
76, -3344.29, -3273.14, -3278.36, -3712.91, 0.000, 0.000, 0.000, 13:52:12.314
77, -3342.14, -3273.00, -3273.50, -3707.24, 0.000, 0.000, 0.000, 13:52:12.314
78, -3347.55, -3286.91, -3283.15, -3724.92, 0.000, 0.000, 0.000, 13:52:12.314
79, -3354.49, -3281.45, -3292.92, -3720.82, 0.000, 0.000, 0.000, 13:52:12.315
80, -3358.19, -3294.29, -3293.25, -3717.07, 0.000, 0.000, 0.000, 13:52:12.315
81, -3363.09, -3287.11, -3298.00, -3717.19, 0.000, 0.000, 0.000, 13:52:12.315
82, -3359.77, -3284.32, -3293.51, -3726.04, 0.000, 0.000, 0.000, 13:52:12.315
83, -3350.41, -3275.14, -3290.50, -3707.69, 0.000, 0.000, 0.000, 13:52:12.315
84, -3347.83, -3271.87, -3289.58, -3710.12, 0.000, 0.000, 0.000, 13:52:12.316
85, -3349.06, -3270.74, -3278.53, -3711.91, 0.000, 0.000, 0.000, 13:52:12.316
86, -3354.53, -3272.38, -3283.42, -3716.75, 0.000, 0.000, 0.000, 13:52:12.316
87, -3348.53, -3273.69, -3277.29, -3712.81, 0.000, 0.000, 0.000, 13:52:12.316
88, -3355.11, -3287.68, -3282.49, -3716.60, 0.000, 0.000, 0.000, 13:52:12.316
89, -3357.32, -3291.26, -3274.43, -3714.04, 0.000, 0.000, 0.000, 13:52:12.328
90, -3362.71, -3290.72, -3278.78, -3722.03, 0.000, 0.000, 0.000, 13:52:12.328
91, -3363.77, -3287.65, -3278.95, -3713.08, 0.000, 0.000, 0.000, 13:52:12.351
92, -3358.91, -3280.60, -3273.53, -3717.02, 0.000, 0.000, 0.000, 13:52:12.351
93, -3353.77, -3283.94, -3281.73, -3722.69, 0.000, 0.000, 0.000, 13:52:12.357
94, -3361.02, -3284.30, -3283.47, -3724.53, 0.000, 0.000, 0.000, 13:52:12.358
95, -3363.97, -3294.17, -3295.57, -3730.72, 0.000, 0.000, 0.000, 13:52:12.358
96, -3356.58, -3278.87, -3287.18, -3722.14, 0.000, 0.000, 0.000, 13:52:12.358
97, -3356.53, -3281.01, -3283.15, -3719.99, 0.000, 0.000, 0.000, 13:52:12.383
98, -3350.83, -3280.89, -3276.58, -3718.25, 0.000, 0.000, 0.000, 13:52:12.383
99, -3354.80, -3284.07, -3282.49, -3715.13, 0.000, 0.000, 0.000, 13:52:12.403
100, -3355.41, -3293.74, -3303.29, -3720.61, 0.000, 0.000, 0.000, 13:52:12.403
101, -3356.54, -3291.39, -3284.10, -3716.60, 0.000, 0.000, 0.000, 13:52:12.403
102, -3345.44, -3283.97, -3279.02, -3714.50, 0.000, 0.000, 0.000, 13:52:12.403
103, -3353.58, -3282.86, -3284.34, -3715.50, 0.000, 0.000, 0.000, 13:52:12.404
104, -3349.30, -3279.94, -3275.68, -3711.61, 0.000, 0.000, 0.000, 13:52:12.404
105, -3352.58, -3278.57, -3274.77, -3714.39, 0.000, 0.000, 0.000, 13:52:12.404
106, -3349.25, -3266.51, -3263.38, -3699.15, 0.000, 0.000, 0.000, 13:52:12.404
107, -3357.21, -3278.69, -3282.18, -3721.14, 0.000, 0.000, 0.000, 13:52:12.418
108, -3353.51, -3276.80, -3279.78, -3709.66, 0.000, 0.000, 0.000, 13:52:12.418
109, -3359.62, -3281.23, -3276.98, -3719.87, 0.000, 0.000, 0.000, 13:52:12.433
110, -3356.84, -3287.49, -3278.28, -3720.71, 0.000, 0.000, 0.000, 13:52:12.433
111, -3352.45, -3287.59, -3277.74, -3715.10, 0.000, 0.000, 0.000, 13:52:12.450
112, -3350.14, -3281.59, -3280.89, -3708.53, 0.000, 0.000, 0.000, 13:52:12.450
113, -3355.09, -3281.99, -3278.44, -3718.72, 0.000, 0.000, 0.000, 13:52:12.450
114, -3357.25, -3278.06, -3285.16, -3730.14, 0.000, 0.000, 0.000, 13:52:12.450
115, -3353.25, -3274.79, -3291.58, -3720.98, 0.000, 0.000, 0.000, 13:52:12.465
116, -3344.65, -3272.48, -3280.21, -3707.43, 0.000, 0.000, 0.000, 13:52:12.465
117, -3350.15, -3271.13, -3283.30, -3711.88, 0.000, 0.000, 0.000, 13:52:12.480
118, -3358.27, -3273.00, -3279.08, -3714.60, 0.000, 0.000, 0.000, 13:52:12.480
119, -3354.87, -3282.69, -3281.11, -3714.36, 0.000, 0.000, 0.000, 13:52:12.480
120, -3356.75, -3284.74, -3275.22, -3707.51, 0.000, 0.000, 0.000, 13:52:12.480
121, -3356.18, -3278.03, -3269.27, -3717.41, 0.000, 0.000, 0.000, 13:52:12.494
122, -3349.96, -3273.66, -3278.31, -3707.12, 0.000, 0.000, 0.000, 13:52:12.494
123, -3354.39, -3278.95, -3279.82, -3716.47, 0.000, 0.000, 0.000, 13:52:12.514
124, -3364.24, -3286.98, -3282.10, -3720.59, 0.000, 0.000, 0.000, 13:52:12.515
125, -3348.97, -3277.69, -3270.65, -3711.52, 0.000, 0.000, 0.000, 13:52:12.515
126, -3356.05, -3278.63, -3290.23, -3723.69, 0.000, 0.000, 0.000, 13:52:12.515
127, -3350.41, -3277.94, -3280.09, -3720.40, 0.000, 0.000, 0.000, 13:52:12.530
128, -3345.01, -3260.95, -3272.58, -3710.67, 0.000, 0.000, 0.000, 13:52:12.530
129, -3338.40, -3258.95, -3260.25, -3704.96, 0.000, 0.000, 0.000, 13:52:12.539
130, -3346.01, -3264.60, -3268.56, -3708.47, 0.000, 0.000, 0.000, 13:52:12.540
131, -3342.46, -3267.12, -3266.86, -3702.13, 0.000, 0.000, 0.000, 13:52:12.540
132, -3350.14, -3274.48, -3271.00, -3712.87, 0.000, 0.000, 0.000, 13:52:12.541
133, -3358.21, -3284.38, -3282.12, -3712.46, 0.000, 0.000, 0.000, 13:52:12.553
134, -3345.45, -3272.15, -3270.05, -3714.75, 0.000, 0.000, 0.000, 13:52:12.553
135, -3350.73, -3275.60, -3267.78, -3709.21, 0.000, 0.000, 0.000, 13:52:12.568
136, -3351.92, -3281.14, -3281.81, -3710.02, 0.000, 0.000, 0.000, 13:52:12.568
137, -3354.01, -3272.40, -3285.92, -3708.09, 0.000, 0.000, 0.000, 13:52:12.568
138, -3342.36, -3273.42, -3278.47, -3708.76, 0.000, 0.000, 0.000, 13:52:12.568
139, -3345.78, -3272.29, -3287.60, -3715.10, 0.000, 0.000, 0.000, 13:52:12.583
140, -3344.85, -3272.84, -3286.10, -3706.92, 0.000, 0.000, 0.000, 13:52:12.583
141, -3349.36, -3279.01, -3280.70, -3706.78, 0.000, 0.000, 0.000, 13:52:12.616
142, -3339.99, -3276.54, -3276.52, -3706.68, 0.000, 0.000, 0.000, 13:52:12.616
143, -3342.25, -3273.27, -3277.57, -3715.03, 0.000, 0.000, 0.000, 13:52:12.617
144, -3330.29, -3272.41, -3266.32, -3709.49, 0.000, 0.000, 0.000, 13:52:12.617
145, -3334.12, -3268.05, -3264.19, -3707.71, 0.000, 0.000, 0.000, 13:52:12.618
146, -3341.78, -3257.91, -3266.45, -3711.81, 0.000, 0.000, 0.000, 13:52:12.618
147, -3344.00, -3264.70, -3274.50, -3712.94, 0.000, 0.000, 0.000, 13:52:12.619
148, -3338.60, -3277.62, -3276.68, -3705.95, 0.000, 0.000, 0.000, 13:52:12.654
149, -3341.67, -3274.65, -3274.72, -3711.68, 0.000, 0.000, 0.000, 13:52:13.052
150, -3342.16, -3265.06, -3262.26, -3706.18, 0.000, 0.000, 0.000, 13:52:13.052
151, -3345.50, -3265.86, -3277.56, -3711.67, 0.000, 0.000, 0.000, 13:52:13.054
152, -3345.06, -3262.74, -3271.45, -3700.44, 0.000, 0.000, 0.000, 13:52:13.054
153, -3344.60, -3267.89, -3274.71, -3705.57, 0.000, 0.000, 0.000, 13:52:13.054
154, -3343.07, -3265.96, -3264.70, -3702.48, 0.000, 0.000, 0.000, 13:52:13.055
155, -3351.43, -3278.91, -3280.52, -3718.27, 0.000, 0.000, 0.000, 13:52:13.055
156, -3348.49, -3274.18, -3277.19, -3709.31, 0.000, 0.000, 0.000, 13:52:13.055
157, -3344.80, -3275.54, -3267.63, -3710.61, 0.000, 0.000, 0.000, 13:52:13.056
158, -3342.42, -3274.56, -3271.35, -3713.68, 0.000, 0.000, 0.000, 13:52:13.056
159, -3347.74, -3279.12, -3278.50, -3717.37, 0.000, 0.000, 0.000, 13:52:13.057
160, -3355.04, -3293.41, -3280.13, -3719.73, 0.000, 0.000, 0.000, 13:52:13.057
161, -3349.42, -3276.82, -3271.56, -3715.30, 0.000, 0.000, 0.000, 13:52:13.057
162, -3343.44, -3264.42, -3272.64, -3712.30, 0.000, 0.000, 0.000, 13:52:13.058
163, -3354.45, -3279.66, -3280.06, -3708.69, 0.000, 0.000, 0.000, 13:52:13.058
164, -3355.69, -3273.41, -3273.69, -3707.57, 0.000, 0.000, 0.000, 13:52:13.058
165, -3349.59, -3274.52, -3283.69, -3711.65, 0.000, 0.000, 0.000, 13:52:13.059
166, -3353.23, -3276.34, -3277.13, -3712.32, 0.000, 0.000, 0.000, 13:52:13.059
167, -3363.22, -3281.12, -3282.87, -3721.98, 0.000, 0.000, 0.000, 13:52:13.060
168, -3348.06, -3280.49, -3268.43, -3710.44, 0.000, 0.000, 0.000, 13:52:13.060
169, -3352.74, -3275.91, -3272.92, -3708.69, 0.000, 0.000, 0.000, 13:52:13.061
170, -3350.39, -3276.48, -3275.07, -3713.86, 0.000, 0.000, 0.000, 13:52:13.061
171, -3352.54, -3281.23, -3273.13, -3713.27, 0.000, 0.000, 0.000, 13:52:13.062
172, -3350.28, -3281.61, -3267.50, -3713.95, 0.000, 0.000, 0.000, 13:52:13.062
173, -3357.30, -3278.57, -3269.83, -3711.18, 0.000, 0.000, 0.000, 13:52:13.063
174, -3349.57, -3275.71, -3274.24, -3711.59, 0.000, 0.000, 0.000, 13:52:13.064
175, -3349.10, -3280.84, -3276.09, -3706.76, 0.000, 0.000, 0.000, 13:52:13.078
176, -3354.11, -3283.17, -3273.21, -3718.11, 0.000, 0.000, 0.000, 13:52:13.078
177, -3366.58, -3293.26, -3295.33, -3736.06, 0.000, 0.000, 0.000, 13:52:13.079
178, -3362.21, -3281.82, -3291.99, -3720.24, 0.000, 0.000, 0.000, 13:52:13.079
179, -3346.46, -3276.82, -3281.03, -3715.53, 0.000, 0.000, 0.000, 13:52:13.080
180, -3347.09, -3272.68, -3277.62, -3712.82, 0.000, 0.000, 0.000, 13:52:13.081
181, -3353.01, -3271.74, -3284.51, -3722.21, 0.000, 0.000, 0.000, 13:52:13.081
182, -3350.40, -3280.49, -3282.30, -3717.32, 0.000, 0.000, 0.000, 13:52:13.081
183, -3347.32, -3275.17, -3281.70, -3708.06, 0.000, 0.000, 0.000, 13:52:13.082
184, -3346.89, -3279.68, -3280.36, -3713.63, 0.000, 0.000, 0.000, 13:52:13.082
185, -3352.28, -3278.01, -3278.61, -3715.40, 0.000, 0.000, 0.000, 13:52:13.083
186, -3342.38, -3267.14, -3273.67, -3706.26, 0.000, 0.000, 0.000, 13:52:13.083
187, -3346.42, -3272.09, -3272.92, -3710.43, 0.000, 0.000, 0.000, 13:52:13.083
188, -3357.39, -3282.32, -3287.55, -3718.10, 0.000, 0.000, 0.000, 13:52:13.084
189, -3356.02, -3280.90, -3284.53, -3720.47, 0.000, 0.000, 0.000, 13:52:13.084
190, -3353.43, -3286.17, -3283.56, -3722.61, 0.000, 0.000, 0.000, 13:52:13.084
191, -3359.67, -3287.81, -3294.67, -3720.59, 0.000, 0.000, 0.000, 13:52:13.085
192, -3354.81, -3286.15, -3284.53, -3723.62, 0.000, 0.000, 0.000, 13:52:13.085
193, -3360.79, -3287.22, -3289.83, -3722.88, 0.000, 0.000, 0.000, 13:52:13.086
194, -3354.70, -3282.30, -3278.96, -3723.84, 0.000, 0.000, 0.000, 13:52:13.086
195, -3352.83, -3285.32, -3290.22, -3735.16, 0.000, 0.000, 0.000, 13:52:13.086
196, -3354.32, -3279.25, -3281.65, -3728.90, 0.000, 0.000, 0.000, 13:52:13.087
197, -3358.68, -3286.17, -3273.84, -3728.59, 0.000, 0.000, 0.000, 13:52:13.087
198, -3360.70, -3280.15, -3281.97, -3730.49, 0.000, 0.000, 0.000, 13:52:13.087
199, -3354.46, -3289.36, -3276.81, -3725.35, 0.000, 0.000, 0.000, 13:52:13.088
200, -3359.09, -3296.20, -3293.70, -3722.55, 0.000, 0.000, 0.000, 13:52:13.088
0, -3365.35, -3285.04, -3283.04, -3723.39, 0.000, 0.000, 0.000, 13:52:13.089
1, -3352.77, -3278.57, -3280.89, -3712.30, 0.000, 0.000, 0.000, 13:52:13.090
2, -3358.98, -3288.36, -3286.88, -3726.81, 0.000, 0.000, 0.000, 13:52:13.090
3, -3351.36, -3278.68, -3284.41, -3718.67, 0.000, 0.000, 0.000, 13:52:13.090
4, -3345.74, -3286.43, -3279.47, -3712.18, 0.000, 0.000, 0.000, 13:52:13.090
5, -3340.39, -3272.32, -3271.60, -3713.02, 0.000, 0.000, 0.000, 13:52:13.091
6, -3353.28, -3279.40, -3279.03, -3719.13, 0.000, 0.000, 0.000, 13:52:13.091
7, -3358.38, -3280.99, -3284.42, -3719.31, 0.000, 0.000, 0.000, 13:52:13.091
8, -3357.60, -3280.67, -3284.50, -3711.37, 0.000, 0.000, 0.000, 13:52:13.091
9, -3354.96, -3287.37, -3289.88, -3723.51, 0.000, 0.000, 0.000, 13:52:13.091
10, -3347.49, -3273.71, -3277.69, -3706.20, 0.000, 0.000, 0.000, 13:52:13.091
11, -3349.81, -3284.45, -3282.00, -3721.27, 0.000, 0.000, 0.000, 13:52:13.092
12, -3345.57, -3274.03, -3271.95, -3710.15, 0.000, 0.000, 0.000, 13:52:13.092
13, -3352.74, -3272.60, -3278.50, -3726.37, 0.000, 0.000, 0.000, 13:52:13.092
14, -3350.03, -3273.28, -3282.56, -3711.08, 0.000, 0.000, 0.000, 13:52:13.092
15, -3351.94, -3281.66, -3282.54, -3713.77, 0.000, 0.000, 0.000, 13:52:13.092
16, -3355.13, -3277.46, -3295.39, -3720.25, 0.000, 0.000, 0.000, 13:52:13.093
17, -3362.23, -3272.80, -3294.56, -3724.45, 0.000, 0.000, 0.000, 13:52:13.093
18, -3356.13, -3275.10, -3288.07, -3705.95, 0.000, 0.000, 0.000, 13:52:13.093
19, -3357.29, -3280.30, -3280.75, -3707.37, 0.000, 0.000, 0.000, 13:52:13.093
20, -3350.76, -3276.96, -3284.52, -3702.09, 0.000, 0.000, 0.000, 13:52:13.093
21, -3352.33, -3280.16, -3279.95, -3722.16, 0.000, 0.000, 0.000, 13:52:13.093
22, -3347.58, -3278.97, -3269.09, -3712.63, 0.000, 0.000, 0.000, 13:52:13.094
23, -3349.30, -3269.32, -3277.58, -3703.46, 0.000, 0.000, 0.000, 13:52:13.094
24, -3350.65, -3269.64, -3283.72, -3723.53, 0.000, 0.000, 0.000, 13:52:13.094
25, -3350.64, -3265.78, -3269.86, -3713.82, 0.000, 0.000, 0.000, 13:52:13.094
26, -3346.42, -3272.89, -3270.08, -3706.57, 0.000, 0.000, 0.000, 13:52:13.094
27, -3348.07, -3285.90, -3277.76, -3720.97, 0.000, 0.000, 0.000, 13:52:13.097
28, -3343.48, -3280.06, -3269.64, -3710.59, 0.000, 0.000, 0.000, 13:52:13.097
29, -3347.98, -3278.68, -3266.75, -3721.08, 0.000, 0.000, 0.000, 13:52:13.098
30, -3345.54, -3275.05, -3271.31, -3708.84, 0.000, 0.000, 0.000, 13:52:13.101
31, -3353.41, -3280.70, -3269.66, -3716.99, 0.000, 0.000, 0.000, 13:52:13.102
32, -3351.96, -3283.49, -3281.49, -3726.71, 0.000, 0.000, 0.000, 13:52:13.102
33, -3347.96, -3273.61, -3278.88, -3721.28, 0.000, 0.000, 0.000, 13:52:13.102
34, -3357.99, -3283.85, -3280.09, -3713.02, 0.000, 0.000, 0.000, 13:52:13.102
35, -3358.72, -3285.69, -3274.51, -3707.01, 0.000, 0.000, 0.000, 13:52:13.102
36, -3355.73, -3277.01, -3274.73, -3711.52, 0.000, 0.000, 0.000, 13:52:13.102
37, -3354.58, -3280.28, -3267.46, -3710.73, 0.000, 0.000, 0.000, 13:52:13.103
38, -3352.39, -3266.93, -3266.49, -3699.08, 0.000, 0.000, 0.000, 13:52:13.103
39, -3360.78, -3258.50, -3269.66, -3706.12, 0.000, 0.000, 0.000, 13:52:13.105
40, -3358.79, -3260.68, -3279.67, -3714.69, 0.000, 0.000, 0.000, 13:52:13.105
41, -3358.61, -3251.53, -3278.76, -3718.28, 0.000, 0.000, 0.000, 13:52:13.105
42, -3353.17, -3253.86, -3280.41, -3715.21, 0.000, 0.000, 0.000, 13:52:13.105
43, -3352.30, -3254.68, -3264.14, -3708.21, 0.000, 0.000, 0.000, 13:52:13.107
44, -3356.89, -3257.77, -3273.90, -3714.48, 0.000, 0.000, 0.000, 13:52:13.108
45, -3351.88, -3252.15, -3285.65, -3716.46, 0.000, 0.000, 0.000, 13:52:13.123
46, -3356.30, -3254.85, -3291.81, -3718.83, 0.000, 0.000, 0.000, 13:52:13.123
47, -3351.61, -3250.09, -3277.56, -3711.23, 0.000, 0.000, 0.000, 13:52:13.123
48, -3349.77, -3259.22, -3276.64, -3720.45, 0.000, 0.000, 0.000, 13:52:13.123
49, -3351.01, -3264.01, -3288.22, -3719.75, 0.000, 0.000, 0.000, 13:52:13.138
50, -3359.98, -3261.70, -3296.52, -3717.36, 0.000, 0.000, 0.000, 13:52:13.138
51, -3352.12, -3261.21, -3288.43, -3703.34, 0.000, 0.000, 0.000, 13:52:13.153
52, -3346.94, -3248.93, -3287.46, -3719.42, 0.000, 0.000, 0.000, 13:52:13.154
53, -3345.35, -3264.26, -3280.55, -3702.46, 0.000, 0.000, 0.000, 13:52:13.168
54, -3350.37, -3258.52, -3280.25, -3717.38, 0.000, 0.000, 0.000, 13:52:13.168
55, -3350.61, -3258.20, -3282.16, -3704.21, 0.000, 0.000, 0.000, 13:52:13.175
56, -3349.11, -3254.17, -3272.37, -3704.59, 0.000, 0.000, 0.000, 13:52:13.175
57, -3355.22, -3265.72, -3271.17, -3710.31, 0.000, 0.000, 0.000, 13:52:13.183
58, -3358.33, -3274.19, -3263.76, -3715.50, 0.000, 0.000, 0.000, 13:52:13.183
59, -3349.30, -3267.73, -3270.40, -3717.46, 0.000, 0.000, 0.000, 13:52:13.183
60, -3348.29, -3268.70, -3277.77, -3710.62, 0.000, 0.000, 0.000, 13:52:13.183
61, -3347.21, -3261.25, -3258.54, -3711.37, 0.000, 0.000, 0.000, 13:52:13.213
62, -3352.38, -3263.77, -3272.28, -3715.65, 0.000, 0.000, 0.000, 13:52:13.213
63, -3350.49, -3275.47, -3280.75, -3716.32, 0.000, 0.000, 0.000, 13:52:13.213
64, -3349.90, -3278.91, -3281.75, -3721.25, 0.000, 0.000, 0.000, 13:52:13.213
65, -3351.85, -3274.62, -3284.55, -3734.46, 0.000, 0.000, 0.000, 13:52:13.213
66, -3354.26, -3273.68, -3284.98, -3725.28, 0.000, 0.000, 0.000, 13:52:13.213
67, -3348.57, -3274.99, -3295.53, -3726.21, 0.000, 0.000, 0.000, 13:52:13.228
68, -3354.49, -3269.76, -3298.09, -3735.44, 0.000, 0.000, 0.000, 13:52:13.228
69, -3350.25, -3271.52, -3293.13, -3724.35, 0.000, 0.000, 0.000, 13:52:13.243
70, -3360.85, -3270.44, -3290.24, -3729.09, 0.000, 0.000, 0.000, 13:52:13.243
71, -3360.56, -3276.78, -3284.75, -3721.65, 0.000, 0.000, 0.000, 13:52:13.243
72, -3349.53, -3273.32, -3279.30, -3707.68, 0.000, 0.000, 0.000, 13:52:13.243
73, -3350.55, -3258.18, -3273.65, -3700.75, 0.000, 0.000, 0.000, 13:52:13.273
74, -3348.78, -3268.98, -3275.47, -3697.39, 0.000, 0.000, 0.000, 13:52:13.273
75, -3346.03, -3262.56, -3271.42, -3702.03, 0.000, 0.000, 0.000, 13:52:13.273
76, -3340.29, -3256.84, -3271.78, -3703.38, 0.000, 0.000, 0.000, 13:52:13.273
77, -3335.12, -3259.00, -3264.00, -3705.46, 0.000, 0.000, 0.000, 13:52:13.273
78, -3335.63, -3255.52, -3268.93, -3698.46, 0.000, 0.000, 0.000, 13:52:13.274
79, -3342.97, -3273.19, -3276.65, -3710.10, 0.000, 0.000, 0.000, 13:52:13.288
80, -3342.02, -3270.73, -3282.53, -3719.70, 0.000, 0.000, 0.000, 13:52:13.288
81, -3334.41, -3261.18, -3273.86, -3717.31, 0.000, 0.000, 0.000, 13:52:13.317
82, -3338.37, -3259.27, -3279.18, -3716.16, 0.000, 0.000, 0.000, 13:52:13.318
83, -3333.37, -3256.19, -3266.93, -3709.81, 0.000, 0.000, 0.000, 13:52:13.318
84, -3329.75, -3250.60, -3270.31, -3702.05, 0.000, 0.000, 0.000, 13:52:13.318
85, -3329.60, -3252.94, -3268.72, -3700.37, 0.000, 0.000, 0.000, 13:52:13.320
86, -3338.46, -3265.20, -3280.30, -3708.87, 0.000, 0.000, 0.000, 13:52:13.320
87, -3345.33, -3276.25, -3280.67, -3712.25, 0.000, 0.000, 0.000, 13:52:13.320
88, -3346.26, -3267.67, -3276.74, -3705.89, 0.000, 0.000, 0.000, 13:52:13.320
89, -3347.90, -3265.23, -3270.28, -3705.60, 0.000, 0.000, 0.000, 13:52:13.332
90, -3354.24, -3277.88, -3276.42, -3711.55, 0.000, 0.000, 0.000, 13:52:13.333
91, -3360.75, -3280.61, -3287.86, -3717.04, 0.000, 0.000, 0.000, 13:52:13.354
92, -3359.96, -3281.66, -3284.04, -3713.91, 0.000, 0.000, 0.000, 13:52:13.354
93, -3359.00, -3274.68, -3285.58, -3718.33, 0.000, 0.000, 0.000, 13:52:13.363
94, -3349.28, -3282.32, -3289.61, -3711.25, 0.000, 0.000, 0.000, 13:52:13.363
95, -3355.91, -3278.31, -3278.04, -3715.24, 0.000, 0.000, 0.000, 13:52:13.363
96, -3351.89, -3282.73, -3300.01, -3715.23, 0.000, 0.000, 0.000, 13:52:13.363
97, -3351.29, -3274.76, -3276.21, -3721.49, 0.000, 0.000, 0.000, 13:52:13.380
98, -3341.20, -3266.33, -3280.37, -3702.54, 0.000, 0.000, 0.000, 13:52:13.381
99, -3352.36, -3272.43, -3287.06, -3709.69, 0.000, 0.000, 0.000, 13:52:13.429
100, -3352.64, -3271.48, -3289.13, -3710.17, 0.000, 0.000, 0.000, 13:52:13.429
101, -3348.21, -3270.10, -3274.53, -3705.05, 0.000, 0.000, 0.000, 13:52:13.430
102, -3347.53, -3267.14, -3277.73, -3702.86, 0.000, 0.000, 0.000, 13:52:13.430
103, -3357.00, -3281.47, -3280.47, -3715.31, 0.000, 0.000, 0.000, 13:52:13.430
104, -3354.41, -3281.83, -3276.00, -3713.90, 0.000, 0.000, 0.000, 13:52:13.430
105, -3354.86, -3281.73, -3273.11, -3716.98, 0.000, 0.000, 0.000, 13:52:13.442
106, -3354.66, -3283.56, -3273.52, -3711.62, 0.000, 0.000, 0.000, 13:52:13.442
107, -3356.00, -3280.87, -3271.83, -3710.53, 0.000, 0.000, 0.000, 13:52:13.442
108, -3356.96, -3287.92, -3281.75, -3718.44, 0.000, 0.000, 0.000, 13:52:13.442
109, -3354.76, -3291.77, -3271.79, -3710.93, 0.000, 0.000, 0.000, 13:52:13.442
110, -3359.79, -3290.58, -3276.39, -3707.75, 0.000, 0.000, 0.000, 13:52:13.446
111, -3355.81, -3303.21, -3282.13, -3716.42, 0.000, 0.000, 0.000, 13:52:13.453
112, -3347.03, -3283.11, -3270.42, -3704.75, 0.000, 0.000, 0.000, 13:52:13.453
113, -3350.39, -3274.08, -3274.06, -3708.89, 0.000, 0.000, 0.000, 13:52:13.455
114, -3352.98, -3280.77, -3280.62, -3720.47, 0.000, 0.000, 0.000, 13:52:13.455
115, -3352.41, -3295.81, -3285.28, -3714.28, 0.000, 0.000, 0.000, 13:52:13.467
116, -3350.76, -3288.49, -3283.01, -3719.15, 0.000, 0.000, 0.000, 13:52:13.468
117, -3344.80, -3279.17, -3279.29, -3712.67, 0.000, 0.000, 0.000, 13:52:13.504
118, -3346.08, -3284.13, -3269.68, -3719.18, 0.000, 0.000, 0.000, 13:52:13.504
119, -3333.83, -3266.95, -3273.85, -3712.22, 0.000, 0.000, 0.000, 13:52:13.505
120, -3343.21, -3269.27, -3278.06, -3709.06, 0.000, 0.000, 0.000, 13:52:13.505
121, -3337.17, -3275.69, -3273.58, -3711.84, 0.000, 0.000, 0.000, 13:52:13.513
122, -3343.33, -3267.57, -3277.61, -3717.49, 0.000, 0.000, 0.000, 13:52:13.513
123, -3351.19, -3279.52, -3278.23, -3716.80, 0.000, 0.000, 0.000, 13:52:13.513
124, -3352.31, -3278.13, -3279.59, -3709.33, 0.000, 0.000, 0.000, 13:52:13.513
125, -3351.31, -3279.62, -3283.09, -3717.96, 0.000, 0.000, 0.000, 13:52:13.567
126, -3350.98, -3278.21, -3279.67, -3712.29, 0.000, 0.000, 0.000, 13:52:13.568
