%OpenBCI Raw EEG Data
%
%Sample Rate = 200.0 Hz
%First Column = SampleIndex
%Last Column = Timestamp 
%Other Columns = EEG data in microvolts followed by Accel Data (in G) interleaved with Aux Data
0, -11289.13, -15686.28, -9693.68, -9860.65, 0.000, 0.000, 0.000, 14:20:22.518
1, -11805.84, -15686.28, -10169.18, -10210.45, 0.000, 0.000, 0.000, 14:20:22.557
2, -12270.57, -15686.28, -10624.65, -10687.21, 0.000, 0.000, 0.000, 14:20:22.557
3, -12189.93, -15686.28, -10680.49, -10690.19, 0.000, 0.000, 0.000, 14:20:22.558
4, -11861.21, -15686.28, -10420.55, -10470.06, 0.000, 0.000, 0.000, 14:20:22.559
5, -11381.06, -15686.28, -9992.76, -10065.46, 0.000, 0.000, 0.000, 14:20:22.559
6, -10812.59, -15686.28, -9486.74, -9581.92, 0.000, 0.000, 0.000, 14:20:22.561
7, -10222.41, -15686.28, -9033.39, -9136.17, 0.000, 0.000, 0.000, 14:20:22.562
8, -9673.03, -15686.28, -8539.43, -8642.64, 0.000, 0.000, 0.000, 14:20:22.563
9, -9108.38, -15546.31, -8041.12, -8222.07, 0.000, 0.000, 0.000, 14:20:22.593
10, -8544.71, -14600.78, -7561.42, -7730.17, 0.000, 0.000, 0.000, 14:20:22.594
11, -8051.65, -13636.71, -7108.55, -7312.72, 0.000, 0.000, 0.000, 14:20:22.595
12, -7585.52, -12741.09, -6672.58, -6926.14, 0.000, 0.000, 0.000, 14:20:22.596
13, -7151.38, -11916.22, -6310.76, -6575.42, 0.000, 0.000, 0.000, 14:20:22.597
14, -6768.18, -11195.88, -5947.26, -6262.46, 0.000, 0.000, 0.000, 14:20:22.598
15, -6399.26, -10517.48, -5660.04, -5917.80, 0.000, 0.000, 0.000, 14:20:22.670
16, -6074.68, -9902.67, -5361.25, -5656.50, 0.000, 0.000, 0.000, 14:20:22.699
17, -5789.23, -9348.54, -5100.00, -5436.61, 0.000, 0.000, 0.000, 14:20:22.703
18, -5510.62, -8837.30, -4868.14, -5182.21, 0.000, 0.000, 0.000, 14:20:22.703
19, -5279.18, -8371.92, -4635.86, -5002.68, 0.000, 0.000, 0.000, 14:20:22.706
20, -5058.45, -7968.04, -4477.38, -4791.37, 0.000, 0.000, 0.000, 14:20:22.712
21, -4846.47, -7586.66, -4266.69, -4659.55, 0.000, 0.000, 0.000, 14:20:22.791
22, -4663.29, -7237.83, -4095.41, -4489.56, 0.000, 0.000, 0.000, 14:20:22.792
23, -4495.86, -6925.57, -3960.45, -4339.19, 0.000, 0.000, 0.000, 14:20:22.804
24, -4355.21, -6646.89, -3820.25, -4224.48, 0.000, 0.000, 0.000, 14:20:22.805
25, -4212.18, -6394.31, -3726.15, -4118.09, 0.000, 0.000, 0.000, 14:20:22.805
26, -4117.76, -6180.60, -3623.02, -4039.41, 0.000, 0.000, 0.000, 14:20:22.805
27, -3997.29, -5953.09, -3516.69, -3917.93, 0.000, 0.000, 0.000, 14:20:22.807
28, -3879.55, -5750.49, -3418.37, -3809.57, 0.000, 0.000, 0.000, 14:20:22.808
29, -3788.04, -5577.40, -3342.44, -3767.52, 0.000, 0.000, 0.000, 14:20:22.808
30, -3693.20, -5411.03, -3268.09, -3677.19, 0.000, 0.000, 0.000, 14:20:22.809
31, -3621.31, -5266.63, -3203.88, -3630.01, 0.000, 0.000, 0.000, 14:20:22.809
32, -3577.91, -5147.28, -3152.66, -3588.14, 0.000, 0.000, 0.000, 14:20:22.810
33, -3501.93, -5020.31, -3079.65, -3524.24, 0.000, 0.000, 0.000, 14:20:22.910
34, -3427.46, -4898.94, -3030.50, -3476.48, 0.000, 0.000, 0.000, 14:20:22.911
35, -3385.60, -4814.83, -3009.91, -3438.14, 0.000, 0.000, 0.000, 14:20:22.912
36, -3329.08, -4715.10, -2946.33, -3385.19, 0.000, 0.000, 0.000, 14:20:22.913
37, -3287.24, -4630.15, -2905.54, -3363.82, 0.000, 0.000, 0.000, 14:20:22.916
38, -3254.43, -4557.87, -2888.82, -3316.53, 0.000, 0.000, 0.000, 14:20:22.917
39, -3208.49, -4483.66, -2857.98, -3286.75, 0.000, 0.000, 0.000, 14:20:22.917
40, -3170.12, -4416.66, -2812.95, -3273.30, 0.000, 0.000, 0.000, 14:20:22.917
41, -3147.11, -4359.21, -2807.08, -3241.88, 0.000, 0.000, 0.000, 14:20:22.919
42, -3129.34, -4307.96, -2784.85, -3221.79, 0.000, 0.000, 0.000, 14:20:22.919
43, -3097.87, -4244.08, -2742.12, -3201.64, 0.000, 0.000, 0.000, 14:20:22.926
44, -3074.92, -4211.40, -2740.12, -3185.44, 0.000, 0.000, 0.000, 14:20:22.926
45, -3049.27, -4159.98, -2706.48, -3157.36, 0.000, 0.000, 0.000, 14:20:22.927
46, -3026.78, -4125.04, -2679.97, -3139.19, 0.000, 0.000, 0.000, 14:20:22.927
47, -3002.19, -4096.43, -2668.03, -3130.84, 0.000, 0.000, 0.000, 14:20:22.966
48, -2990.34, -4052.26, -2642.31, -3108.37, 0.000, 0.000, 0.000, 14:20:22.966
49, -2974.39, -4024.89, -2643.14, -3100.67, 0.000, 0.000, 0.000, 14:20:22.983
50, -2966.20, -3996.47, -2622.48, -3099.14, 0.000, 0.000, 0.000, 14:20:22.984
51, -2932.73, -3963.46, -2612.84, -3092.96, 0.000, 0.000, 0.000, 14:20:22.997
52, -2912.66, -3939.23, -2590.57, -3054.61, 0.000, 0.000, 0.000, 14:20:22.997
53, -2916.60, -3922.97, -2603.07, -3058.32, 0.000, 0.000, 0.000, 14:20:22.998
54, -2908.12, -3890.95, -2594.43, -3045.57, 0.000, 0.000, 0.000, 14:20:22.998
55, -2895.06, -3868.62, -2574.23, -3030.01, 0.000, 0.000, 0.000, 14:20:22.999
56, -2896.12, -3860.30, -2576.25, -3036.56, 0.000, 0.000, 0.000, 14:20:22.999
57, -2875.81, -3837.34, -2563.19, -3031.54, 0.000, 0.000, 0.000, 14:20:23.000
58, -2873.72, -3821.02, -2566.17, -3021.18, 0.000, 0.000, 0.000, 14:20:23.000
59, -2878.36, -3816.48, -2554.06, -3012.35, 0.000, 0.000, 0.000, 14:20:23.006
60, -2862.59, -3800.25, -2549.89, -2991.29, 0.000, 0.000, 0.000, 14:20:23.007
61, -2857.16, -3794.14, -2547.93, -3001.69, 0.000, 0.000, 0.000, 14:20:23.007
62, -2889.39, -3806.72, -2569.52, -3019.78, 0.000, 0.000, 0.000, 14:20:23.032
63, -2869.89, -3784.67, -2555.57, -3015.29, 0.000, 0.000, 0.000, 14:20:23.032
64, -2870.23, -3782.33, -2553.26, -3017.11, 0.000, 0.000, 0.000, 14:20:23.057
65, -2872.14, -3774.87, -2541.60, -3005.47, 0.000, 0.000, 0.000, 14:20:23.057
66, -2854.22, -3766.21, -2541.24, -3001.13, 0.000, 0.000, 0.000, 14:20:23.057
67, -2840.44, -3747.78, -2514.87, -2996.12, 0.000, 0.000, 0.000, 14:20:23.058
68, -2841.47, -3742.72, -2523.97, -2987.54, 0.000, 0.000, 0.000, 14:20:23.058
69, -2830.50, -3728.35, -2526.05, -2990.45, 0.000, 0.000, 0.000, 14:20:23.058
70, -2829.46, -3715.91, -2511.65, -2986.60, 0.000, 0.000, 0.000, 14:20:23.058
71, -2838.60, -3712.09, -2507.10, -2981.86, 0.000, 0.000, 0.000, 14:20:23.059
72, -2817.35, -3693.70, -2513.89, -2975.62, 0.000, 0.000, 0.000, 14:20:23.059
73, -2815.85, -3693.00, -2498.85, -2976.98, 0.000, 0.000, 0.000, 14:20:23.059
74, -2818.76, -3701.82, -2516.41, -2967.91, 0.000, 0.000, 0.000, 14:20:23.059
75, -2824.00, -3695.64, -2510.60, -2960.69, 0.000, 0.000, 0.000, 14:20:23.060
76, -2821.39, -3685.02, -2507.67, -2982.55, 0.000, 0.000, 0.000, 14:20:23.060
77, -2834.06, -3694.21, -2525.38, -2985.95, 0.000, 0.000, 0.000, 14:20:23.060
78, -2816.64, -3668.80, -2527.92, -2972.72, 0.000, 0.000, 0.000, 14:20:23.060
79, -2792.69, -3646.79, -2505.27, -2951.26, 0.000, 0.000, 0.000, 14:20:23.061
80, -2788.30, -3643.40, -2485.92, -2967.37, 0.000, 0.000, 0.000, 14:20:23.061
81, -2784.54, -3634.60, -2482.55, -2960.56, 0.000, 0.000, 0.000, 14:20:23.061
82, -2776.24, -3625.69, -2474.55, -2947.60, 0.000, 0.000, 0.000, 14:20:23.061
83, -2787.25, -3637.35, -2493.04, -2976.65, 0.000, 0.000, 0.000, 14:20:23.062
84, -2779.24, -3626.36, -2479.90, -2941.34, 0.000, 0.000, 0.000, 14:20:23.062
85, -2779.28, -3616.13, -2487.38, -2948.42, 0.000, 0.000, 0.000, 14:20:23.062
86, -2776.16, -3612.83, -2471.31, -2940.17, 0.000, 0.000, 0.000, 14:20:23.062
87, -2769.44, -3611.14, -2477.05, -2935.53, 0.000, 0.000, 0.000, 14:20:23.063
88, -2765.50, -3603.14, -2469.61, -2934.51, 0.000, 0.000, 0.000, 14:20:23.063
89, -2764.53, -3593.08, -2471.31, -2918.69, 0.000, 0.000, 0.000, 14:20:23.063
90, -2756.49, -3588.33, -2470.31, -2930.39, 0.000, 0.000, 0.000, 14:20:23.063
91, -2764.04, -3591.68, -2464.29, -2919.83, 0.000, 0.000, 0.000, 14:20:23.064
92, -2765.37, -3595.12, -2471.17, -2927.80, 0.000, 0.000, 0.000, 14:20:23.064
93, -2760.05, -3591.51, -2463.44, -2934.22, 0.000, 0.000, 0.000, 14:20:23.064
94, -2756.14, -3583.25, -2458.85, -2931.94, 0.000, 0.000, 0.000, 14:20:23.064
95, -2756.08, -3580.59, -2450.50, -2926.17, 0.000, 0.000, 0.000, 14:20:23.065
96, -2771.71, -3582.46, -2489.43, -2932.64, 0.000, 0.000, 0.000, 14:20:23.073
97, -2768.80, -3572.67, -2486.31, -2929.69, 0.000, 0.000, 0.000, 14:20:23.073
98, -2779.16, -3589.22, -2491.47, -2947.68, 0.000, 0.000, 0.000, 14:20:23.073
99, -2772.54, -3578.74, -2487.11, -2950.32, 0.000, 0.000, 0.000, 14:20:23.073
100, -2768.82, -3575.99, -2478.20, -2938.86, 0.000, 0.000, 0.000, 14:20:23.074
101, -2767.17, -3580.28, -2483.82, -2932.06, 0.000, 0.000, 0.000, 14:20:23.074
102, -2761.56, -3573.12, -2478.77, -2943.30, 0.000, 0.000, 0.000, 14:20:23.074
103, -2750.85, -3562.32, -2466.00, -2913.24, 0.000, 0.000, 0.000, 14:20:23.074
104, -2764.11, -3568.63, -2461.61, -2914.48, 0.000, 0.000, 0.000, 14:20:23.076
105, -2762.25, -3569.78, -2470.77, -2933.40, 0.000, 0.000, 0.000, 14:20:23.076
106, -2754.04, -3557.79, -2453.05, -2921.12, 0.000, 0.000, 0.000, 14:20:23.077
107, -2749.07, -3562.35, -2469.67, -2930.57, 0.000, 0.000, 0.000, 14:20:23.077
108, -2747.93, -3556.46, -2454.51, -2907.89, 0.000, 0.000, 0.000, 14:20:23.077
109, -2729.26, -3539.61, -2455.16, -2906.81, 0.000, 0.000, 0.000, 14:20:23.087
110, -2746.53, -3551.65, -2478.32, -2916.08, 0.000, 0.000, 0.000, 14:20:23.087
111, -2737.42, -3548.92, -2457.15, -2907.52, 0.000, 0.000, 0.000, 14:20:23.149
112, -2747.31, -3552.25, -2452.34, -2912.79, 0.000, 0.000, 0.000, 14:20:23.150
113, -2746.97, -3555.10, -2459.40, -2932.96, 0.000, 0.000, 0.000, 14:20:23.159
114, -2744.87, -3550.95, -2455.20, -2938.68, 0.000, 0.000, 0.000, 14:20:23.159
115, -2747.20, -3548.24, -2458.12, -2941.49, 0.000, 0.000, 0.000, 14:20:23.160
116, -2749.81, -3541.85, -2459.71, -2895.96, 0.000, 0.000, 0.000, 14:20:23.160
117, -2742.68, -3546.04, -2461.71, -2911.27, 0.000, 0.000, 0.000, 14:20:23.161
118, -2736.22, -3537.83, -2453.85, -2911.23, 0.000, 0.000, 0.000, 14:20:23.161
119, -2748.45, -3538.66, -2454.50, -2921.76, 0.000, 0.000, 0.000, 14:20:23.161
120, -2728.51, -3525.02, -2447.67, -2896.75, 0.000, 0.000, 0.000, 14:20:23.163
121, -2721.51, -3515.02, -2438.94, -2889.98, 0.000, 0.000, 0.000, 14:20:23.167
122, -2728.15, -3517.45, -2451.11, -2905.92, 0.000, 0.000, 0.000, 14:20:23.167
123, -2728.66, -3501.71, -2424.94, -2881.91, 0.000, 0.000, 0.000, 14:20:23.169
124, -2715.81, -3506.27, -2430.66, -2874.38, 0.000, 0.000, 0.000, 14:20:23.169
125, -2708.91, -3500.58, -2418.57, -2870.15, 0.000, 0.000, 0.000, 14:20:23.173
126, -2698.92, -3499.46, -2419.31, -2878.74, 0.000, 0.000, 0.000, 14:20:23.173
127, -2689.84, -3481.31, -2417.31, -2868.89, 0.000, 0.000, 0.000, 14:20:23.174
128, -2699.26, -3489.73, -2434.02, -2880.13, 0.000, 0.000, 0.000, 14:20:23.174
129, -2684.39, -3477.71, -2405.44, -2892.66, 0.000, 0.000, 0.000, 14:20:23.226
130, -2684.11, -3473.01, -2412.15, -2882.39, 0.000, 0.000, 0.000, 14:20:23.227
131, -2684.24, -3476.34, -2410.22, -2876.20, 0.000, 0.000, 0.000, 14:20:23.275
132, -2693.38, -3476.66, -2412.70, -2871.33, 0.000, 0.000, 0.000, 14:20:23.276
133, -2677.96, -3464.73, -2390.38, -2865.24, 0.000, 0.000, 0.000, 14:20:23.280
134, -2692.95, -3479.49, -2409.56, -2878.95, 0.000, 0.000, 0.000, 14:20:23.281
135, -2691.69, -3471.08, -2402.35, -2864.18, 0.000, 0.000, 0.000, 14:20:23.282
136, -2675.34, -3462.48, -2401.29, -2850.56, 0.000, 0.000, 0.000, 14:20:23.282
137, -2685.30, -3470.40, -2403.37, -2881.22, 0.000, 0.000, 0.000, 14:20:23.285
138, -2689.43, -3481.40, -2419.01, -2885.61, 0.000, 0.000, 0.000, 14:20:23.285
139, -2686.44, -3471.76, -2418.05, -2870.20, 0.000, 0.000, 0.000, 14:20:23.289
140, -2700.98, -3479.67, -2421.34, -2884.71, 0.000, 0.000, 0.000, 14:20:23.290
141, -2704.38, -3481.23, -2430.03, -2888.63, 0.000, 0.000, 0.000, 14:20:23.291
142, -2696.80, -3468.18, -2423.08, -2889.60, 0.000, 0.000, 0.000, 14:20:23.291
143, -2692.21, -3470.95, -2425.48, -2883.67, 0.000, 0.000, 0.000, 14:20:23.328
144, -2690.46, -3473.79, -2422.41, -2890.22, 0.000, 0.000, 0.000, 14:20:23.328
145, -2688.91, -3473.61, -2419.94, -2882.31, 0.000, 0.000, 0.000, 14:20:23.330
146, -2700.75, -3488.79, -2432.01, -2893.79, 0.000, 0.000, 0.000, 14:20:23.331
147, -2697.96, -3475.29, -2428.50, -2888.64, 0.000, 0.000, 0.000, 14:20:23.332
148, -2703.26, -3479.39, -2415.11, -2869.81, 0.000, 0.000, 0.000, 14:20:23.332
149, -2720.65, -3495.31, -2424.63, -2883.90, 0.000, 0.000, 0.000, 14:20:23.364
150, -2709.17, -3491.96, -2433.08, -2897.15, 0.000, 0.000, 0.000, 14:20:23.375
151, -2697.17, -3485.25, -2427.61, -2889.98, 0.000, 0.000, 0.000, 14:20:23.410
152, -2705.69, -3490.54, -2435.03, -2890.21, 0.000, 0.000, 0.000, 14:20:23.410
153, -2712.08, -3491.17, -2427.20, -2883.17, 0.000, 0.000, 0.000, 14:20:23.411
154, -2710.14, -3496.35, -2432.65, -2899.31, 0.000, 0.000, 0.000, 14:20:23.411
155, -2712.20, -3496.86, -2432.00, -2890.14, 0.000, 0.000, 0.000, 14:20:23.424
156, -2708.23, -3493.57, -2422.04, -2877.08, 0.000, 0.000, 0.000, 14:20:23.425
157, -2705.89, -3491.92, -2421.99, -2884.59, 0.000, 0.000, 0.000, 14:20:23.446
158, -2725.01, -3511.47, -2440.90, -2901.66, 0.000, 0.000, 0.000, 14:20:23.447
159, -2710.42, -3498.33, -2432.81, -2904.75, 0.000, 0.000, 0.000, 14:20:23.447
160, -2697.09, -3481.47, -2435.49, -2887.68, 0.000, 0.000, 0.000, 14:20:23.447
161, -2698.45, -3483.76, -2421.96, -2897.38, 0.000, 0.000, 0.000, 14:20:23.449
162, -2699.14, -3484.74, -2441.03, -2890.03, 0.000, 0.000, 0.000, 14:20:23.449
163, -2685.28, -3469.26, -2425.80, -2885.83, 0.000, 0.000, 0.000, 14:20:23.450
164, -2697.26, -3482.71, -2424.77, -2891.20, 0.000, 0.000, 0.000, 14:20:23.451
165, -2700.02, -3483.82, -2429.23, -2889.83, 0.000, 0.000, 0.000, 14:20:23.453
166, -2677.37, -3466.30, -2412.23, -2879.07, 0.000, 0.000, 0.000, 14:20:23.458
167, -2700.10, -3484.98, -2428.36, -2888.78, 0.000, 0.000, 0.000, 14:20:23.460
168, -2691.19, -3471.85, -2428.74, -2881.01, 0.000, 0.000, 0.000, 14:20:23.461
169, -2683.40, -3453.18, -2413.20, -2871.05, 0.000, 0.000, 0.000, 14:20:23.462
170, -2680.72, -3452.08, -2422.20, -2876.42, 0.000, 0.000, 0.000, 14:20:23.467
171, -2672.57, -3444.66, -2403.55, -2854.19, 0.000, 0.000, 0.000, 14:20:23.506
172, -2666.22, -3448.46, -2401.83, -2857.68, 0.000, 0.000, 0.000, 14:20:23.593
173, -2671.96, -3440.04, -2404.97, -2880.13, 0.000, 0.000, 0.000, 14:20:23.594
174, -2659.52, -3437.28, -2382.22, -2875.52, 0.000, 0.000, 0.000, 14:20:23.594
175, -2643.05, -3420.01, -2383.06, -2853.63, 0.000, 0.000, 0.000, 14:20:23.594
176, -2649.88, -3430.18, -2393.30, -2842.36, 0.000, 0.000, 0.000, 14:20:23.594
177, -2662.01, -3431.01, -2396.58, -2844.38, 0.000, 0.000, 0.000, 14:20:23.594
178, -2667.84, -3437.86, -2397.15, -2856.51, 0.000, 0.000, 0.000, 14:20:23.595
179, -2674.02, -3439.47, -2419.03, -2846.40, 0.000, 0.000, 0.000, 14:20:23.595
180, -2678.20, -3442.43, -2416.85, -2865.60, 0.000, 0.000, 0.000, 14:20:23.595
181, -2673.77, -3436.70, -2423.74, -2855.10, 0.000, 0.000, 0.000, 14:20:23.595
182, -2675.34, -3446.08, -2417.46, -2873.86, 0.000, 0.000, 0.000, 14:20:23.596
183, -2665.41, -3442.37, -2399.71, -2872.45, 0.000, 0.000, 0.000, 14:20:23.597
184, -2664.56, -3437.34, -2387.35, -2855.66, 0.000, 0.000, 0.000, 14:20:23.597
185, -2679.56, -3455.46, -2401.82, -2872.03, 0.000, 0.000, 0.000, 14:20:23.635
186, -2674.45, -3453.78, -2389.87, -2875.16, 0.000, 0.000, 0.000, 14:20:23.636
187, -2661.95, -3450.78, -2404.60, -2865.60, 0.000, 0.000, 0.000, 14:20:23.674
188, -2692.69, -3474.16, -2427.14, -2877.28, 0.000, 0.000, 0.000, 14:20:23.678
189, -2685.45, -3463.91, -2420.67, -2875.37, 0.000, 0.000, 0.000, 14:20:23.680
190, -2686.97, -3462.50, -2415.00, -2884.74, 0.000, 0.000, 0.000, 14:20:23.680
191, -2697.98, -3475.52, -2427.79, -2885.78, 0.000, 0.000, 0.000, 14:20:23.681
192, -2691.27, -3465.99, -2425.90, -2879.49, 0.000, 0.000, 0.000, 14:20:23.682
193, -2677.96, -3455.90, -2423.03, -2868.07, 0.000, 0.000, 0.000, 14:20:23.686
194, -2689.60, -3465.76, -2412.11, -2882.53, 0.000, 0.000, 0.000, 14:20:23.687
195, -2679.96, -3458.21, -2420.51, -2870.10, 0.000, 0.000, 0.000, 14:20:23.720
196, -2677.86, -3446.12, -2404.64, -2869.00, 0.000, 0.000, 0.000, 14:20:23.721
197, -2669.46, -3458.14, -2403.02, -2876.07, 0.000, 0.000, 0.000, 14:20:23.722
198, -2670.30, -3455.96, -2406.47, -2865.25, 0.000, 0.000, 0.000, 14:20:23.722
199, -2687.62, -3453.31, -2412.69, -2879.97, 0.000, 0.000, 0.000, 14:20:23.723
200, -2684.64, -3462.81, -2406.74, -2865.39, 0.000, 0.000, 0.000, 14:20:23.723
0, -3656.54, -3461.54, -3397.40, -3844.77, 0.000, 0.000, 0.000, 14:20:23.738
1, -3657.71, -3445.13, -3398.08, -3871.51, 0.000, 0.000, 0.000, 14:20:23.740
2, -3665.00, -3462.08, -3399.62, -3850.21, 0.000, 0.000, 0.000, 14:20:23.740
3, -3666.39, -3453.99, -3397.81, -3857.49, 0.000, 0.000, 0.000, 14:20:23.741
4, -3658.79, -3448.13, -3387.46, -3844.54, 0.000, 0.000, 0.000, 14:20:23.741
5, -3661.84, -3456.41, -3405.06, -3845.57, 0.000, 0.000, 0.000, 14:20:23.742
6, -3665.87, -3448.59, -3398.46, -3855.18, 0.000, 0.000, 0.000, 14:20:23.742
7, -3662.89, -3444.57, -3383.96, -3853.74, 0.000, 0.000, 0.000, 14:20:23.743
8, -3686.20, -3470.97, -3417.36, -3878.24, 0.000, 0.000, 0.000, 14:20:23.743
9, -3676.34, -3464.13, -3411.44, -3856.77, 0.000, 0.000, 0.000, 14:20:23.744
10, -3672.77, -3461.53, -3398.67, -3846.69, 0.000, 0.000, 0.000, 14:20:23.744
11, -3661.76, -3465.27, -3403.61, -3852.80, 0.000, 0.000, 0.000, 14:20:23.744
12, -3659.79, -3442.22, -3406.65, -3847.57, 0.000, 0.000, 0.000, 14:20:23.745
13, -3655.29, -3440.30, -3375.97, -3854.84, 0.000, 0.000, 0.000, 14:20:23.749
14, -3664.03, -3454.62, -3384.50, -3858.39, 0.000, 0.000, 0.000, 14:20:23.756
15, -3646.57, -3433.95, -3368.62, -3825.24, 0.000, 0.000, 0.000, 14:20:23.776
16, -3636.54, -3422.20, -3377.65, -3831.04, 0.000, 0.000, 0.000, 14:20:23.777
17, -3644.47, -3441.30, -3380.42, -3837.95, 0.000, 0.000, 0.000, 14:20:23.817
18, -3650.24, -3430.63, -3373.73, -3834.01, 0.000, 0.000, 0.000, 14:20:23.817
19, -3644.99, -3428.30, -3358.39, -3831.09, 0.000, 0.000, 0.000, 14:20:23.854
20, -3652.38, -3436.74, -3371.52, -3844.22, 0.000, 0.000, 0.000, 14:20:23.854
21, -3640.89, -3430.11, -3383.66, -3846.12, 0.000, 0.000, 0.000, 14:20:23.855
22, -3641.83, -3426.81, -3385.44, -3828.19, 0.000, 0.000, 0.000, 14:20:23.855
23, -3663.09, -3447.70, -3383.94, -3857.37, 0.000, 0.000, 0.000, 14:20:23.857
24, -3648.15, -3440.20, -3364.65, -3854.20, 0.000, 0.000, 0.000, 14:20:23.857
25, -3642.83, -3431.23, -3386.80, -3852.85, 0.000, 0.000, 0.000, 14:20:23.903
26, -3638.25, -3444.39, -3379.97, -3838.65, 0.000, 0.000, 0.000, 14:20:23.903
27, -3629.30, -3421.27, -3373.92, -3825.32, 0.000, 0.000, 0.000, 14:20:23.904
28, -3624.59, -3416.87, -3353.49, -3830.72, 0.000, 0.000, 0.000, 14:20:23.904
29, -3635.18, -3433.49, -3374.60, -3846.68, 0.000, 0.000, 0.000, 14:20:23.941
30, -3631.63, -3429.02, -3375.95, -3831.63, 0.000, 0.000, 0.000, 14:20:23.943
31, -3621.25, -3413.64, -3364.89, -3834.56, 0.000, 0.000, 0.000, 14:20:24.103
32, -3645.36, -3426.19, -3378.46, -3841.50, 0.000, 0.000, 0.000, 14:20:24.104
33, -3646.87, -3427.82, -3387.46, -3856.44, 0.000, 0.000, 0.000, 14:20:24.104
34, -3645.39, -3423.36, -3381.33, -3855.64, 0.000, 0.000, 0.000, 14:20:24.105
35, -3642.78, -3421.84, -3393.47, -3833.46, 0.000, 0.000, 0.000, 14:20:24.137
36, -3639.64, -3422.91, -3377.37, -3844.31, 0.000, 0.000, 0.000, 14:20:24.137
37, -3634.27, -3418.60, -3384.18, -3834.42, 0.000, 0.000, 0.000, 14:20:24.169
38, -3646.68, -3431.08, -3390.67, -3845.51, 0.000, 0.000, 0.000, 14:20:24.169
39, -3651.24, -3435.71, -3385.22, -3842.98, 0.000, 0.000, 0.000, 14:20:24.170
40, -3633.02, -3420.37, -3390.33, -3828.81, 0.000, 0.000, 0.000, 14:20:24.170
41, -3646.87, -3433.21, -3388.91, -3841.86, 0.000, 0.000, 0.000, 14:20:24.174
42, -3639.12, -3429.72, -3385.93, -3838.24, 0.000, 0.000, 0.000, 14:20:24.174
43, -3632.32, -3423.83, -3361.43, -3830.00, 0.000, 0.000, 0.000, 14:20:24.175
44, -3639.39, -3430.93, -3380.58, -3844.28, 0.000, 0.000, 0.000, 14:20:24.176
45, -3633.03, -3433.72, -3373.98, -3847.76, 0.000, 0.000, 0.000, 14:20:24.177
46, -3618.50, -3410.41, -3358.71, -3836.79, 0.000, 0.000, 0.000, 14:20:24.177
47, -3621.14, -3420.09, -3359.71, -3823.31, 0.000, 0.000, 0.000, 14:20:24.182
48, -3605.33, -3412.62, -3348.80, -3835.04, 0.000, 0.000, 0.000, 14:20:24.185
49, -3605.57, -3409.51, -3353.27, -3822.96, 0.000, 0.000, 0.000, 14:20:24.213
50, -3615.48, -3423.07, -3351.13, -3842.23, 0.000, 0.000, 0.000, 14:20:24.214
51, -3601.83, -3415.51, -3347.80, -3832.18, 0.000, 0.000, 0.000, 14:20:24.215
52, -3600.45, -3407.79, -3355.23, -3839.77, 0.000, 0.000, 0.000, 14:20:24.215
53, -3599.83, -3408.14, -3351.15, -3840.06, 0.000, 0.000, 0.000, 14:20:24.240
54, -3595.23, -3396.65, -3348.49, -3830.71, 0.000, 0.000, 0.000, 14:20:24.245
55, -3583.06, -3395.59, -3340.07, -3823.65, 0.000, 0.000, 0.000, 14:20:24.272
56, -3620.48, -3421.02, -3366.61, -3842.03, 0.000, 0.000, 0.000, 14:20:24.272
57, -3609.74, -3406.49, -3355.63, -3831.76, 0.000, 0.000, 0.000, 14:20:24.273
58, -3608.55, -3405.78, -3358.96, -3827.28, 0.000, 0.000, 0.000, 14:20:24.273
59, -3617.12, -3412.96, -3351.37, -3825.64, 0.000, 0.000, 0.000, 14:20:24.303
60, -3618.06, -3409.14, -3352.87, -3830.51, 0.000, 0.000, 0.000, 14:20:24.312
61, -3624.66, -3418.53, -3368.46, -3841.86, 0.000, 0.000, 0.000, 14:20:24.312
62, -3625.69, -3429.55, -3376.51, -3843.94, 0.000, 0.000, 0.000, 14:20:24.312
63, -3639.86, -3438.40, -3370.07, -3847.16, 0.000, 0.000, 0.000, 14:20:24.313
64, -3645.87, -3448.28, -3387.17, -3848.26, 0.000, 0.000, 0.000, 14:20:24.313
65, -3653.16, -3444.15, -3391.32, -3847.24, 0.000, 0.000, 0.000, 14:20:24.313
66, -3638.78, -3427.98, -3371.35, -3845.16, 0.000, 0.000, 0.000, 14:20:24.313
67, -3635.13, -3417.01, -3372.86, -3820.84, 0.000, 0.000, 0.000, 14:20:24.313
68, -3645.34, -3422.82, -3376.51, -3824.26, 0.000, 0.000, 0.000, 14:20:24.314
69, -3632.66, -3411.88, -3372.41, -3820.44, 0.000, 0.000, 0.000, 14:20:24.314
70, -3618.77, -3415.17, -3347.84, -3812.86, 0.000, 0.000, 0.000, 14:20:24.314
71, -3652.05, -3444.01, -3373.33, -3852.48, 0.000, 0.000, 0.000, 14:20:24.314
72, -3648.70, -3435.74, -3381.98, -3844.30, 0.000, 0.000, 0.000, 14:20:24.315
73, -3662.00, -3434.22, -3388.79, -3855.44, 0.000, 0.000, 0.000, 14:20:24.315
74, -3669.69, -3441.30, -3394.65, -3838.86, 0.000, 0.000, 0.000, 14:20:24.315
75, -3664.00, -3441.67, -3394.35, -3835.59, 0.000, 0.000, 0.000, 14:20:24.315
76, -3666.73, -3452.47, -3409.17, -3855.12, 0.000, 0.000, 0.000, 14:20:24.315
77, -3692.00, -3466.82, -3406.58, -3883.09, 0.000, 0.000, 0.000, 14:20:24.316
78, -3688.50, -3466.69, -3402.62, -3883.31, 0.000, 0.000, 0.000, 14:20:24.316
79, -3692.05, -3473.76, -3410.37, -3885.73, 0.000, 0.000, 0.000, 14:20:24.316
80, -3706.01, -3483.17, -3430.51, -3886.19, 0.000, 0.000, 0.000, 14:20:24.316
81, -3696.96, -3467.03, -3425.77, -3870.47, 0.000, 0.000, 0.000, 14:20:24.317
82, -3690.55, -3458.87, -3413.80, -3871.03, 0.000, 0.000, 0.000, 14:20:24.317
83, -3676.51, -3454.36, -3403.20, -3855.68, 0.000, 0.000, 0.000, 14:20:24.317
84, -3674.46, -3453.45, -3398.93, -3861.78, 0.000, 0.000, 0.000, 14:20:24.317
85, -3658.50, -3441.98, -3401.22, -3868.95, 0.000, 0.000, 0.000, 14:20:24.317
86, -3677.24, -3451.87, -3428.61, -3882.83, 0.000, 0.000, 0.000, 14:20:24.318
87, -3681.34, -3443.74, -3435.14, -3864.55, 0.000, 0.000, 0.000, 14:20:24.318
88, -3679.15, -3439.09, -3415.48, -3854.11, 0.000, 0.000, 0.000, 14:20:24.318
89, -3677.41, -3442.01, -3423.99, -3841.66, 0.000, 0.000, 0.000, 14:20:24.318
90, -3662.00, -3420.09, -3391.76, -3841.78, 0.000, 0.000, 0.000, 14:20:24.319
91, -3657.00, -3419.22, -3385.53, -3845.82, 0.000, 0.000, 0.000, 14:20:24.319
92, -3667.44, -3444.73, -3417.16, -3868.38, 0.000, 0.000, 0.000, 14:20:24.319
93, -3672.43, -3440.15, -3406.73, -3859.05, 0.000, 0.000, 0.000, 14:20:24.319
94, -3654.10, -3433.65, -3389.07, -3836.68, 0.000, 0.000, 0.000, 14:20:24.320
95, -3662.03, -3439.40, -3396.15, -3844.13, 0.000, 0.000, 0.000, 14:20:24.320
96, -3655.17, -3432.03, -3375.50, -3849.05, 0.000, 0.000, 0.000, 14:20:24.320
97, -3656.73, -3428.97, -3401.01, -3849.19, 0.000, 0.000, 0.000, 14:20:24.320
98, -3653.23, -3434.72, -3397.25, -3844.10, 0.000, 0.000, 0.000, 14:20:24.320
99, -3659.76, -3437.57, -3381.82, -3850.38, 0.000, 0.000, 0.000, 14:20:24.321
100, -3642.30, -3415.40, -3367.68, -3836.82, 0.000, 0.000, 0.000, 14:20:24.321
101, -3647.66, -3419.16, -3398.77, -3834.48, 0.000, 0.000, 0.000, 14:20:24.321
102, -3628.59, -3406.54, -3376.81, -3823.99, 0.000, 0.000, 0.000, 14:20:24.321
103, -3633.27, -3404.21, -3378.97, -3826.58, 0.000, 0.000, 0.000, 14:20:24.321
104, -3645.42, -3416.90, -3363.06, -3830.43, 0.000, 0.000, 0.000, 14:20:24.325
105, -3642.36, -3411.70, -3368.90, -3837.69, 0.000, 0.000, 0.000, 14:20:24.326
106, -3632.01, -3406.45, -3363.23, -3822.42, 0.000, 0.000, 0.000, 14:20:24.326
107, -3635.26, -3423.33, -3373.56, -3832.52, 0.000, 0.000, 0.000, 14:20:24.326
108, -3636.29, -3423.41, -3371.17, -3845.00, 0.000, 0.000, 0.000, 14:20:24.326
109, -3631.81, -3417.59, -3388.33, -3829.54, 0.000, 0.000, 0.000, 14:20:24.327
110, -3642.86, -3431.48, -3378.48, -3850.70, 0.000, 0.000, 0.000, 14:20:24.327
111, -3650.34, -3436.64, -3397.36, -3856.49, 0.000, 0.000, 0.000, 14:20:24.327
112, -3657.33, -3438.90, -3387.08, -3851.94, 0.000, 0.000, 0.000, 14:20:24.327
113, -3677.66, -3466.42, -3402.09, -3867.92, 0.000, 0.000, 0.000, 14:20:24.328
114, -3682.85, -3474.50, -3409.61, -3861.29, 0.000, 0.000, 0.000, 14:20:24.328
115, -3668.38, -3457.15, -3398.84, -3852.01, 0.000, 0.000, 0.000, 14:20:24.328
116, -3683.46, -3463.44, -3405.57, -3876.51, 0.000, 0.000, 0.000, 14:20:24.328
117, -3672.63, -3455.23, -3403.70, -3877.16, 0.000, 0.000, 0.000, 14:20:24.329
118, -3669.34, -3442.42, -3406.85, -3880.01, 0.000, 0.000, 0.000, 14:20:24.331
119, -3674.51, -3454.30, -3402.07, -3856.73, 0.000, 0.000, 0.000, 14:20:24.331
120, -3662.24, -3457.11, -3424.45, -3868.46, 0.000, 0.000, 0.000, 14:20:24.331
121, -3656.67, -3443.24, -3395.75, -3843.11, 0.000, 0.000, 0.000, 14:20:24.331
122, -3670.52, -3452.26, -3392.93, -3868.36, 0.000, 0.000, 0.000, 14:20:24.331
123, -3664.99, -3450.50, -3397.58, -3847.68, 0.000, 0.000, 0.000, 14:20:24.332
124, -3650.72, -3441.37, -3402.64, -3851.79, 0.000, 0.000, 0.000, 14:20:24.332
125, -3645.52, -3435.03, -3385.13, -3857.97, 0.000, 0.000, 0.000, 14:20:24.332
126, -3638.23, -3421.65, -3382.92, -3841.94, 0.000, 0.000, 0.000, 14:20:24.332
127, -3636.12, -3407.46, -3362.15, -3820.66, 0.000, 0.000, 0.000, 14:20:24.332
128, -3644.17, -3418.32, -3383.49, -3821.41, 0.000, 0.000, 0.000, 14:20:24.333
129, -3643.85, -3425.40, -3398.88, -3841.20, 0.000, 0.000, 0.000, 14:20:24.333
130, -3647.25, -3421.27, -3391.90, -3841.28, 0.000, 0.000, 0.000, 14:20:24.333
131, -3654.30, -3425.07, -3381.77, -3831.64, 0.000, 0.000, 0.000, 14:20:24.333
132, -3646.58, -3423.40, -3378.66, -3844.50, 0.000, 0.000, 0.000, 14:20:24.333
133, -3645.77, -3421.11, -3386.16, -3832.26, 0.000, 0.000, 0.000, 14:20:24.334
134, -3656.90, -3437.66, -3382.60, -3847.65, 0.000, 0.000, 0.000, 14:20:24.334
135, -3659.78, -3440.29, -3388.60, -3847.81, 0.000, 0.000, 0.000, 14:20:24.334
136, -3648.35, -3434.14, -3384.01, -3861.98, 0.000, 0.000, 0.000, 14:20:24.334
137, -3651.11, -3435.69, -3393.56, -3867.65, 0.000, 0.000, 0.000, 14:20:24.334
138, -3640.33, -3422.41, -3395.27, -3855.58, 0.000, 0.000, 0.000, 14:20:24.335
139, -3640.25, -3417.44, -3371.24, -3849.08, 0.000, 0.000, 0.000, 14:20:24.335
140, -3658.97, -3438.90, -3401.28, -3859.57, 0.000, 0.000, 0.000, 14:20:24.335
141, -3645.78, -3424.39, -3393.49, -3851.55, 0.000, 0.000, 0.000, 14:20:24.335
142, -3638.32, -3413.36, -3373.09, -3840.58, 0.000, 0.000, 0.000, 14:20:24.335
143, -3635.60, -3413.89, -3390.93, -3828.21, 0.000, 0.000, 0.000, 14:20:24.336
144, -3630.49, -3405.40, -3367.97, -3848.70, 0.000, 0.000, 0.000, 14:20:24.336
145, -3626.80, -3407.16, -3376.59, -3833.25, 0.000, 0.000, 0.000, 14:20:24.357
146, -3631.71, -3402.87, -3370.48, -3829.33, 0.000, 0.000, 0.000, 14:20:24.358
147, -3623.51, -3397.47, -3373.01, -3815.77, 0.000, 0.000, 0.000, 14:20:24.358
148, -3611.46, -3390.96, -3377.52, -3820.10, 0.000, 0.000, 0.000, 14:20:24.358
149, -3615.95, -3399.15, -3371.22, -3835.99, 0.000, 0.000, 0.000, 14:20:24.361
150, -3619.96, -3395.74, -3362.90, -3834.38, 0.000, 0.000, 0.000, 14:20:24.362
151, -3622.01, -3402.40, -3360.36, -3828.52, 0.000, 0.000, 0.000, 14:20:24.440
152, -3633.60, -3415.69, -3383.61, -3836.97, 0.000, 0.000, 0.000, 14:20:24.440
153, -3628.20, -3404.08, -3366.98, -3823.18, 0.000, 0.000, 0.000, 14:20:24.614
154, -3623.61, -3406.78, -3378.95, -3832.80, 0.000, 0.000, 0.000, 14:20:24.614
155, -3619.46, -3412.97, -3373.29, -3831.21, 0.000, 0.000, 0.000, 14:20:24.615
156, -3622.44, -3408.97, -3361.32, -3820.03, 0.000, 0.000, 0.000, 14:20:24.615
157, -3625.27, -3422.80, -3376.53, -3841.59, 0.000, 0.000, 0.000, 14:20:24.615
158, -3635.65, -3421.58, -3370.63, -3841.66, 0.000, 0.000, 0.000, 14:20:24.615
159, -3630.53, -3410.02, -3360.73, -3834.59, 0.000, 0.000, 0.000, 14:20:24.616
160, -3621.40, -3410.47, -3369.81, -3825.97, 0.000, 0.000, 0.000, 14:20:24.616
161, -3653.16, -3429.30, -3381.81, -3849.12, 0.000, 0.000, 0.000, 14:20:24.616
162, -3648.58, -3423.76, -3370.02, -3834.69, 0.000, 0.000, 0.000, 14:20:24.616
163, -3637.17, -3414.16, -3373.78, -3834.90, 0.000, 0.000, 0.000, 14:20:24.616
164, -3634.20, -3414.94, -3379.91, -3834.01, 0.000, 0.000, 0.000, 14:20:24.617
165, -3633.32, -3413.36, -3363.82, -3850.92, 0.000, 0.000, 0.000, 14:20:24.617
166, -3626.26, -3409.85, -3371.96, -3831.42, 0.000, 0.000, 0.000, 14:20:24.617
167, -3626.86, -3415.66, -3370.65, -3823.98, 0.000, 0.000, 0.000, 14:20:24.617
168, -3636.14, -3410.69, -3383.19, -3832.43, 0.000, 0.000, 0.000, 14:20:24.617
169, -3632.95, -3418.62, -3381.65, -3826.41, 0.000, 0.000, 0.000, 14:20:24.618
170, -3649.70, -3432.74, -3377.04, -3850.51, 0.000, 0.000, 0.000, 14:20:24.618
171, -3658.45, -3440.15, -3395.60, -3853.06, 0.000, 0.000, 0.000, 14:20:24.618
172, -3650.50, -3438.29, -3399.00, -3858.29, 0.000, 0.000, 0.000, 14:20:24.618
173, -3666.00, -3448.92, -3407.04, -3848.41, 0.000, 0.000, 0.000, 14:20:24.618
174, -3665.19, -3447.96, -3386.08, -3845.12, 0.000, 0.000, 0.000, 14:20:24.624
175, -3667.11, -3451.98, -3393.64, -3857.38, 0.000, 0.000, 0.000, 14:20:24.624
176, -3686.73, -3464.87, -3413.98, -3869.24, 0.000, 0.000, 0.000, 14:20:24.625
177, -3684.78, -3468.36, -3437.16, -3877.72, 0.000, 0.000, 0.000, 14:20:24.625
178, -3683.24, -3464.65, -3431.41, -3891.33, 0.000, 0.000, 0.000, 14:20:24.626
179, -3689.18, -3467.96, -3418.13, -3880.00, 0.000, 0.000, 0.000, 14:20:24.626
180, -3691.85, -3480.60, -3436.94, -3886.89, 0.000, 0.000, 0.000, 14:20:24.626
181, -3692.73, -3472.92, -3414.54, -3908.95, 0.000, 0.000, 0.000, 14:20:24.629
182, -3693.63, -3478.77, -3429.86, -3893.33, 0.000, 0.000, 0.000, 14:20:24.637
183, -3674.52, -3459.48, -3419.04, -3868.00, 0.000, 0.000, 0.000, 14:20:24.637
184, -3661.88, -3444.54, -3407.89, -3868.65, 0.000, 0.000, 0.000, 14:20:24.637
185, -3670.96, -3450.83, -3418.66, -3867.90, 0.000, 0.000, 0.000, 14:20:24.637
186, -3658.54, -3435.15, -3391.62, -3852.60, 0.000, 0.000, 0.000, 14:20:24.638
187, -3658.96, -3427.88, -3394.58, -3835.57, 0.000, 0.000, 0.000, 14:20:24.638
188, -3666.56, -3440.95, -3411.22, -3862.68, 0.000, 0.000, 0.000, 14:20:24.638
189, -3656.74, -3433.33, -3400.78, -3858.26, 0.000, 0.000, 0.000, 14:20:24.638
190, -3638.73, -3416.22, -3394.02, -3860.13, 0.000, 0.000, 0.000, 14:20:24.638
191, -3635.03, -3405.82, -3367.52, -3839.78, 0.000, 0.000, 0.000, 14:20:24.638
192, -3629.73, -3405.56, -3359.58, -3839.18, 0.000, 0.000, 0.000, 14:20:24.639
193, -3627.20, -3404.75, -3378.50, -3825.18, 0.000, 0.000, 0.000, 14:20:24.639
194, -3637.64, -3415.44, -3368.30, -3836.22, 0.000, 0.000, 0.000, 14:20:24.639
195, -3630.26, -3409.75, -3388.69, -3819.63, 0.000, 0.000, 0.000, 14:20:24.639
196, -3626.55, -3404.72, -3382.73, -3831.98, 0.000, 0.000, 0.000, 14:20:24.639
197, -3623.09, -3399.68, -3379.00, -3824.49, 0.000, 0.000, 0.000, 14:20:24.639
198, -3616.23, -3389.25, -3369.86, -3829.81, 0.000, 0.000, 0.000, 14:20:24.640
199, -3615.90, -3389.96, -3356.11, -3816.52, 0.000, 0.000, 0.000, 14:20:24.640
200, -3610.60, -3387.53, -3359.77, -3827.65, 0.000, 0.000, 0.000, 14:20:24.640
0, -3604.92, -3386.35, -3361.07, -3833.99, 0.000, 0.000, 0.000, 14:20:24.640
1, -3600.77, -3380.10, -3373.96, -3809.85, 0.000, 0.000, 0.000, 14:20:24.640
2, -3630.13, -3405.83, -3376.08, -3843.74, 0.000, 0.000, 0.000, 14:20:24.641
3, -3625.27, -3411.91, -3368.50, -3840.77, 0.000, 0.000, 0.000, 14:20:24.641
4, -3616.01, -3407.58, -3359.01, -3831.24, 0.000, 0.000, 0.000, 14:20:24.641
5, -3622.50, -3401.79, -3362.34, -3825.12, 0.000, 0.000, 0.000, 14:20:24.641
6, -3614.35, -3386.27, -3348.97, -3823.95, 0.000, 0.000, 0.000, 14:20:24.642
7, -3607.09, -3393.32, -3347.33, -3820.78, 0.000, 0.000, 0.000, 14:20:24.642
8, -3621.38, -3403.17, -3364.67, -3826.11, 0.000, 0.000, 0.000, 14:20:24.642
9, -3619.19, -3395.63, -3363.77, -3826.58, 0.000, 0.000, 0.000, 14:20:24.642
10, -3615.14, -3394.35, -3353.82, -3819.48, 0.000, 0.000, 0.000, 14:20:24.642
11, -3615.87, -3401.81, -3363.12, -3821.65, 0.000, 0.000, 0.000, 14:20:24.643
12, -3621.51, -3400.27, -3362.03, -3821.80, 0.000, 0.000, 0.000, 14:20:24.643
13, -3615.43, -3392.35, -3373.52, -3810.71, 0.000, 0.000, 0.000, 14:20:24.643
14, -3633.29, -3415.93, -3367.94, -3831.16, 0.000, 0.000, 0.000, 14:20:24.643
15, -3629.01, -3407.45, -3380.56, -3844.41, 0.000, 0.000, 0.000, 14:20:24.676
16, -3629.01, -3417.04, -3379.27, -3837.88, 0.000, 0.000, 0.000, 14:20:24.676
17, -3631.15, -3422.35, -3389.24, -3839.91, 0.000, 0.000, 0.000, 14:20:24.677
18, -3633.33, -3421.53, -3381.76, -3840.68, 0.000, 0.000, 0.000, 14:20:24.677
19, -3636.80, -3411.44, -3386.03, -3837.76, 0.000, 0.000, 0.000, 14:20:24.678
20, -3646.38, -3424.79, -3401.75, -3829.78, 0.000, 0.000, 0.000, 14:20:24.685
21, -3639.84, -3419.78, -3395.85, -3840.33, 0.000, 0.000, 0.000, 14:20:24.744
22, -3633.27, -3415.89, -3372.70, -3842.38, 0.000, 0.000, 0.000, 14:20:24.744
23, -3653.49, -3422.11, -3387.25, -3842.80, 0.000, 0.000, 0.000, 14:20:24.759
24, -3644.19, -3430.25, -3394.13, -3849.58, 0.000, 0.000, 0.000, 14:20:24.760
25, -3633.13, -3425.47, -3371.33, -3843.71, 0.000, 0.000, 0.000, 14:20:24.760
26, -3645.36, -3436.57, -3382.52, -3840.46, 0.000, 0.000, 0.000, 14:20:24.760
27, -3654.67, -3435.64, -3391.52, -3834.98, 0.000, 0.000, 0.000, 14:20:24.764
28, -3657.28, -3437.38, -3397.58, -3845.93, 0.000, 0.000, 0.000, 14:20:24.765
29, -3674.03, -3458.41, -3400.24, -3871.91, 0.000, 0.000, 0.000, 14:20:24.783
30, -3671.89, -3459.21, -3407.84, -3863.54, 0.000, 0.000, 0.000, 14:20:24.784
31, -3662.37, -3449.00, -3407.68, -3873.74, 0.000, 0.000, 0.000, 14:20:24.820
32, -3668.31, -3460.62, -3419.00, -3870.07, 0.000, 0.000, 0.000, 14:20:24.821
33, -3661.37, -3440.66, -3398.82, -3860.10, 0.000, 0.000, 0.000, 14:20:24.861
34, -3656.66, -3437.54, -3397.87, -3821.46, 0.000, 0.000, 0.000, 14:20:24.862
35, -3662.73, -3443.55, -3407.09, -3827.92, 0.000, 0.000, 0.000, 14:20:24.863
36, -3646.78, -3430.44, -3375.68, -3859.70, 0.000, 0.000, 0.000, 14:20:24.863
37, -3629.92, -3419.69, -3377.97, -3838.95, 0.000, 0.000, 0.000, 14:20:24.894
38, -3639.26, -3420.44, -3376.07, -3846.29, 0.000, 0.000, 0.000, 14:20:24.894
39, -3631.76, -3428.04, -3370.51, -3861.19, 0.000, 0.000, 0.000, 14:20:24.940
40, -3632.66, -3411.73, -3378.06, -3834.07, 0.000, 0.000, 0.000, 14:20:24.940
41, -3636.24, -3411.77, -3378.29, -3831.02, 0.000, 0.000, 0.000, 14:20:24.940
42, -3626.26, -3402.33, -3379.88, -3825.80, 0.000, 0.000, 0.000, 14:20:24.940
43, -3618.98, -3392.87, -3376.46, -3825.42, 0.000, 0.000, 0.000, 14:20:24.941
44, -3635.00, -3425.10, -3374.66, -3842.38, 0.000, 0.000, 0.000, 14:20:24.941
45, -3631.92, -3419.89, -3381.68, -3836.45, 0.000, 0.000, 0.000, 14:20:24.978
46, -3622.82, -3400.21, -3360.60, -3834.68, 0.000, 0.000, 0.000, 14:20:24.978
47, -3618.85, -3401.47, -3365.69, -3838.44, 0.000, 0.000, 0.000, 14:20:24.989
48, -3615.68, -3398.89, -3352.94, -3826.99, 0.000, 0.000, 0.000, 14:20:24.989
49, -3605.24, -3397.84, -3342.51, -3815.66, 0.000, 0.000, 0.000, 14:20:24.990
50, -3623.09, -3410.55, -3365.80, -3840.90, 0.000, 0.000, 0.000, 14:20:24.990
51, -3608.02, -3403.80, -3369.48, -3834.22, 0.000, 0.000, 0.000, 14:20:24.991
52, -3607.27, -3399.94, -3365.40, -3843.35, 0.000, 0.000, 0.000, 14:20:24.992
53, -3616.14, -3401.31, -3365.43, -3845.88, 0.000, 0.000, 0.000, 14:20:24.993
54, -3615.54, -3405.00, -3374.20, -3841.54, 0.000, 0.000, 0.000, 14:20:24.994
55, -3615.42, -3400.91, -3363.41, -3835.58, 0.000, 0.000, 0.000, 14:20:24.994
56, -3614.40, -3414.38, -3370.05, -3828.12, 0.000, 0.000, 0.000, 14:20:24.994
57, -3609.75, -3392.74, -3369.91, -3820.61, 0.000, 0.000, 0.000, 14:20:25.026
58, -3605.24, -3391.34, -3350.67, -3823.89, 0.000, 0.000, 0.000, 14:20:25.027
59, -3613.70, -3401.87, -3363.56, -3831.02, 0.000, 0.000, 0.000, 14:20:25.030
60, -3615.35, -3396.69, -3378.96, -3832.84, 0.000, 0.000, 0.000, 14:20:25.036
61, -3617.65, -3395.93, -3361.14, -3823.49, 0.000, 0.000, 0.000, 14:20:25.178
62, -3629.12, -3405.29, -3371.57, -3842.02, 0.000, 0.000, 0.000, 14:20:25.179
63, -3637.98, -3413.26, -3368.89, -3839.85, 0.000, 0.000, 0.000, 14:20:25.179
64, -3620.92, -3402.39, -3367.10, -3819.33, 0.000, 0.000, 0.000, 14:20:25.180
65, -3628.22, -3402.86, -3382.45, -3809.21, 0.000, 0.000, 0.000, 14:20:25.268
66, -3611.08, -3391.52, -3349.64, -3809.02, 0.000, 0.000, 0.000, 14:20:25.268
67, -3622.43, -3390.20, -3341.18, -3828.80, 0.000, 0.000, 0.000, 14:20:25.272
68, -3632.48, -3408.26, -3353.18, -3806.32, 0.000, 0.000, 0.000, 14:20:25.273
69, -3631.78, -3402.89, -3376.01, -3820.85, 0.000, 0.000, 0.000, 14:20:25.274
70, -3630.54, -3397.05, -3350.40, -3826.50, 0.000, 0.000, 0.000, 14:20:25.274
71, -3644.53, -3417.13, -3386.67, -3836.12, 0.000, 0.000, 0.000, 14:20:25.346
72, -3643.01, -3421.53, -3371.20, -3843.62, 0.000, 0.000, 0.000, 14:20:25.347
73, -3642.57, -3417.18, -3382.98, -3838.56, 0.000, 0.000, 0.000, 14:20:25.362
74, -3642.12, -3425.40, -3383.26, -3822.69, 0.000, 0.000, 0.000, 14:20:25.363
75, -3634.08, -3418.77, -3386.16, -3823.16, 0.000, 0.000, 0.000, 14:20:25.363
76, -3645.42, -3432.33, -3393.56, -3838.08, 0.000, 0.000, 0.000, 14:20:25.363
77, -3641.28, -3427.36, -3382.16, -3842.95, 0.000, 0.000, 0.000, 14:20:25.385
78, -3642.63, -3416.46, -3387.10, -3834.01, 0.000, 0.000, 0.000, 14:20:25.385
79, -3639.67, -3421.27, -3376.02, -3841.64, 0.000, 0.000, 0.000, 14:20:25.423
80, -3664.48, -3440.07, -3406.48, -3870.36, 0.000, 0.000, 0.000, 14:20:25.424
81, -3662.24, -3442.04, -3413.30, -3864.52, 0.000, 0.000, 0.000, 14:20:25.453
82, -3649.26, -3441.15, -3387.68, -3863.47, 0.000, 0.000, 0.000, 14:20:25.453
83, -3660.41, -3450.58, -3407.47, -3863.61, 0.000, 0.000, 0.000, 14:20:25.453
84, -3665.59, -3456.84, -3414.36, -3887.91, 0.000, 0.000, 0.000, 14:20:25.456
85, -3667.62, -3451.94, -3405.64, -3873.74, 0.000, 0.000, 0.000, 14:20:25.457
86, -3685.22, -3469.72, -3414.23, -3876.05, 0.000, 0.000, 0.000, 14:20:25.458
87, -3679.71, -3463.79, -3398.86, -3859.73, 0.000, 0.000, 0.000, 14:20:25.461
88, -3668.57, -3453.22, -3414.92, -3875.89, 0.000, 0.000, 0.000, 14:20:25.462
89, -3670.97, -3461.57, -3416.13, -3875.66, 0.000, 0.000, 0.000, 14:20:25.462
90, -3661.89, -3448.63, -3408.09, -3863.42, 0.000, 0.000, 0.000, 14:20:25.463
91, -3656.25, -3438.42, -3403.18, -3861.53, 0.000, 0.000, 0.000, 14:20:25.500
92, -3663.39, -3451.53, -3395.76, -3863.82, 0.000, 0.000, 0.000, 14:20:25.500
93, -3652.96, -3435.46, -3403.86, -3850.30, 0.000, 0.000, 0.000, 14:20:25.536
94, -3646.07, -3420.72, -3391.01, -3840.87, 0.000, 0.000, 0.000, 14:20:25.537
95, -3636.40, -3416.34, -3405.25, -3843.66, 0.000, 0.000, 0.000, 14:20:25.543
96, -3631.50, -3403.42, -3366.53, -3840.39, 0.000, 0.000, 0.000, 14:20:25.544
97, -3626.77, -3395.58, -3376.87, -3829.30, 0.000, 0.000, 0.000, 14:20:25.545
98, -3613.38, -3398.41, -3350.30, -3815.38, 0.000, 0.000, 0.000, 14:20:25.545
99, -3617.38, -3394.75, -3355.00, -3830.27, 0.000, 0.000, 0.000, 14:20:25.546
100, -3609.73, -3382.15, -3361.28, -3825.49, 0.000, 0.000, 0.000, 14:20:25.547
101, -3609.95, -3379.27, -3356.57, -3819.10, 0.000, 0.000, 0.000, 14:20:25.577
102, -3602.04, -3379.46, -3343.24, -3793.97, 0.000, 0.000, 0.000, 14:20:25.578
103, -3603.00, -3370.78, -3353.51, -3796.77, 0.000, 0.000, 0.000, 14:20:25.614
104, -3615.36, -3394.80, -3366.00, -3829.21, 0.000, 0.000, 0.000, 14:20:25.614
105, -3607.89, -3379.45, -3365.42, -3822.10, 0.000, 0.000, 0.000, 14:20:25.615
106, -3602.66, -3373.75, -3347.93, -3807.92, 0.000, 0.000, 0.000, 14:20:25.615
107, -3609.85, -3378.89, -3355.83, -3814.46, 0.000, 0.000, 0.000, 14:20:25.617
108, -3606.75, -3372.80, -3360.30, -3808.18, 0.000, 0.000, 0.000, 14:20:25.617
109, -3604.26, -3374.93, -3339.76, -3813.96, 0.000, 0.000, 0.000, 14:20:25.618
110, -3614.86, -3389.74, -3354.59, -3803.24, 0.000, 0.000, 0.000, 14:20:25.619
111, -3603.61, -3386.96, -3362.96, -3815.08, 0.000, 0.000, 0.000, 14:20:25.619
112, -3602.48, -3376.82, -3351.38, -3806.91, 0.000, 0.000, 0.000, 14:20:25.654
113, -3617.44, -3403.00, -3360.43, -3819.65, 0.000, 0.000, 0.000, 14:20:25.690
114, -3615.86, -3398.78, -3353.81, -3823.48, 0.000, 0.000, 0.000, 14:20:25.691
115, -3611.76, -3390.25, -3358.05, -3818.48, 0.000, 0.000, 0.000, 14:20:25.725
116, -3627.04, -3405.48, -3369.38, -3839.14, 0.000, 0.000, 0.000, 14:20:25.726
117, -3624.53, -3408.25, -3371.55, -3823.89, 0.000, 0.000, 0.000, 14:20:25.769
118, -3624.90, -3401.94, -3378.95, -3828.56, 0.000, 0.000, 0.000, 14:20:25.770
119, -3617.70, -3402.91, -3366.04, -3837.58, 0.000, 0.000, 0.000, 14:20:25.770
120, -3620.38, -3398.71, -3372.80, -3834.79, 0.000, 0.000, 0.000, 14:20:25.770
121, -3621.73, -3393.76, -3365.74, -3819.13, 0.000, 0.000, 0.000, 14:20:25.771
122, -3633.80, -3413.69, -3377.61, -3828.79, 0.000, 0.000, 0.000, 14:20:25.772
123, -3629.96, -3405.82, -3382.05, -3828.77, 0.000, 0.000, 0.000, 14:20:25.808
124, -3627.01, -3401.55, -3370.26, -3821.36, 0.000, 0.000, 0.000, 14:20:25.809
125, -3629.56, -3406.39, -3371.59, -3829.25, 0.000, 0.000, 0.000, 14:20:25.809
126, -3631.86, -3417.22, -3366.50, -3826.91, 0.000, 0.000, 0.000, 14:20:25.810
127, -3616.36, -3414.12, -3368.10, -3836.52, 0.000, 0.000, 0.000, 14:20:25.854
128, -3637.14, -3426.48, -3384.13, -3842.41, 0.000, 0.000, 0.000, 14:20:25.854
129, -3626.11, -3420.28, -3370.46, -3839.12, 0.000, 0.000, 0.000, 14:20:25.854
130, -3626.34, -3414.63, -3377.04, -3832.82, 0.000, 0.000, 0.000, 14:20:25.854
131, -3636.41, -3423.46, -3375.93, -3839.01, 0.000, 0.000, 0.000, 14:20:25.855
132, -3632.09, -3420.08, -3369.51, -3848.19, 0.000, 0.000, 0.000, 14:20:25.855
133, -3626.52, -3404.80, -3368.66, -3836.89, 0.000, 0.000, 0.000, 14:20:25.940
134, -3629.56, -3422.18, -3382.53, -3847.17, 0.000, 0.000, 0.000, 14:20:25.941
135, -3623.22, -3408.32, -3369.68, -3843.72, 0.000, 0.000, 0.000, 14:20:25.978
136, -3611.88, -3394.64, -3368.16, -3821.77, 0.000, 0.000, 0.000, 14:20:25.979
137, -3627.53, -3406.79, -3374.22, -3835.32, 0.000, 0.000, 0.000, 14:20:26.008
138, -3621.57, -3403.06, -3375.48, -3827.23, 0.000, 0.000, 0.000, 14:20:26.009
139, -3625.88, -3400.39, -3365.49, -3817.69, 0.000, 0.000, 0.000, 14:20:26.009
140, -3644.67, -3425.80, -3387.57, -3848.16, 0.000, 0.000, 0.000, 14:20:26.009
141, -3633.44, -3407.65, -3378.40, -3841.13, 0.000, 0.000, 0.000, 14:20:26.029
142, -3621.06, -3396.37, -3360.98, -3828.99, 0.000, 0.000, 0.000, 14:20:26.029
143, -3618.82, -3402.14, -3366.76, -3825.65, 0.000, 0.000, 0.000, 14:20:26.041
144, -3612.80, -3394.13, -3364.12, -3828.41, 0.000, 0.000, 0.000, 14:20:26.042
145, -3610.74, -3395.89, -3373.34, -3820.74, 0.000, 0.000, 0.000, 14:20:26.046
146, -3621.33, -3403.42, -3366.58, -3831.24, 0.000, 0.000, 0.000, 14:20:26.046
147, -3619.29, -3394.12, -3374.04, -3822.67, 0.000, 0.000, 0.000, 14:20:26.108
148, -3616.73, -3395.99, -3368.25, -3828.07, 0.000, 0.000, 0.000, 14:20:26.108
149, -3621.18, -3408.09, -3377.86, -3827.85, 0.000, 0.000, 0.000, 14:20:26.143
150, -3605.53, -3386.03, -3363.21, -3817.22, 0.000, 0.000, 0.000, 14:20:26.144
151, -3608.31, -3382.09, -3355.35, -3801.88, 0.000, 0.000, 0.000, 14:20:26.144
152, -3624.25, -3400.55, -3363.90, -3818.35, 0.000, 0.000, 0.000, 14:20:26.144
153, -3624.73, -3404.40, -3370.27, -3813.19, 0.000, 0.000, 0.000, 14:20:26.147
154, -3617.83, -3399.12, -3357.39, -3808.71, 0.000, 0.000, 0.000, 14:20:26.148
155, -3622.24, -3408.27, -3363.53, -3838.66, 0.000, 0.000, 0.000, 14:20:26.148
156, -3622.13, -3406.99, -3367.27, -3838.73, 0.000, 0.000, 0.000, 14:20:26.148
157, -3622.85, -3402.62, -3372.90, -3838.99, 0.000, 0.000, 0.000, 14:20:26.167
158, -3632.54, -3416.14, -3384.32, -3849.63, 0.000, 0.000, 0.000, 14:20:26.167
159, -3642.29, -3422.88, -3387.87, -3836.92, 0.000, 0.000, 0.000, 14:20:26.168
160, -3643.24, -3410.82, -3391.63, -3832.78, 0.000, 0.000, 0.000, 14:20:26.169
161, -3663.27, -3436.60, -3406.87, -3843.54, 0.000, 0.000, 0.000, 14:20:26.170
162, -3663.64, -3437.78, -3388.07, -3849.16, 0.000, 0.000, 0.000, 14:20:26.170
163, -3652.92, -3425.65, -3391.58, -3857.26, 0.000, 0.000, 0.000, 14:20:26.171
164, -3643.36, -3422.47, -3381.56, -3843.72, 0.000, 0.000, 0.000, 14:20:26.172
165, -3638.69, -3416.04, -3389.94, -3850.02, 0.000, 0.000, 0.000, 14:20:26.173
166, -3642.23, -3420.80, -3397.09, -3846.94, 0.000, 0.000, 0.000, 14:20:26.174
167, -3650.91, -3427.61, -3408.29, -3863.26, 0.000, 0.000, 0.000, 14:20:26.175
168, -3655.40, -3443.20, -3400.69, -3863.06, 0.000, 0.000, 0.000, 14:20:26.175
169, -3657.05, -3432.87, -3384.50, -3849.39, 0.000, 0.000, 0.000, 14:20:26.176
170, -3646.91, -3437.05, -3389.34, -3851.32, 0.000, 0.000, 0.000, 14:20:26.176
171, -3653.31, -3441.94, -3395.18, -3862.80, 0.000, 0.000, 0.000, 14:20:26.177
172, -3650.34, -3438.76, -3399.96, -3861.27, 0.000, 0.000, 0.000, 14:20:26.177
173, -3657.56, -3445.18, -3413.25, -3859.40, 0.000, 0.000, 0.000, 14:20:26.178
174, -3654.63, -3434.12, -3408.70, -3859.18, 0.000, 0.000, 0.000, 14:20:26.178
175, -3640.84, -3417.31, -3400.15, -3848.38, 0.000, 0.000, 0.000, 14:20:26.179
176, -3641.88, -3421.10, -3393.47, -3856.78, 0.000, 0.000, 0.000, 14:20:26.179
177, -3640.97, -3425.65, -3392.81, -3849.00, 0.000, 0.000, 0.000, 14:20:26.180
178, -3638.55, -3416.31, -3376.71, -3833.28, 0.000, 0.000, 0.000, 14:20:26.180
179, -3636.45, -3413.16, -3385.27, -3836.32, 0.000, 0.000, 0.000, 14:20:26.180
180, -3633.41, -3407.98, -3389.25, -3826.59, 0.000, 0.000, 0.000, 14:20:26.181
181, -3621.59, -3398.32, -3365.64, -3819.29, 0.000, 0.000, 0.000, 14:20:26.181
182, -3635.52, -3401.42, -3375.06, -3823.71, 0.000, 0.000, 0.000, 14:20:26.182
183, -3639.77, -3405.99, -3380.50, -3841.06, 0.000, 0.000, 0.000, 14:20:26.182
184, -3623.38, -3401.59, -3369.08, -3817.97, 0.000, 0.000, 0.000, 14:20:26.183
185, -3622.69, -3390.94, -3368.51, -3820.98, 0.000, 0.000, 0.000, 14:20:26.183
186, -3617.93, -3387.27, -3365.24, -3822.93, 0.000, 0.000, 0.000, 14:20:26.183
187, -3620.88, -3392.83, -3370.07, -3817.63, 0.000, 0.000, 0.000, 14:20:26.184
188, -3628.65, -3397.63, -3370.75, -3827.28, 0.000, 0.000, 0.000, 14:20:26.184
189, -3625.80, -3398.21, -3368.45, -3817.49, 0.000, 0.000, 0.000, 14:20:26.184
190, -3624.89, -3393.47, -3358.14, -3819.71, 0.000, 0.000, 0.000, 14:20:26.185
191, -3621.19, -3398.97, -3360.40, -3829.37, 0.000, 0.000, 0.000, 14:20:26.185
192, -3611.63, -3390.91, -3348.62, -3824.36, 0.000, 0.000, 0.000, 14:20:26.185
193, -3610.18, -3384.01, -3357.27, -3829.96, 0.000, 0.000, 0.000, 14:20:26.186
194, -3615.77, -3393.80, -3359.75, -3831.82, 0.000, 0.000, 0.000, 14:20:26.186
195, -3620.08, -3399.69, -3375.27, -3837.89, 0.000, 0.000, 0.000, 14:20:26.188
196, -3615.73, -3392.91, -3368.89, -3830.15, 0.000, 0.000, 0.000, 14:20:26.189
197, -3618.38, -3401.55, -3365.02, -3825.47, 0.000, 0.000, 0.000, 14:20:26.190
198, -3614.06, -3385.96, -3343.80, -3827.11, 0.000, 0.000, 0.000, 14:20:26.190
199, -3619.69, -3391.77, -3360.99, -3832.15, 0.000, 0.000, 0.000, 14:20:26.191
200, -3635.41, -3412.27, -3360.27, -3841.48, 0.000, 0.000, 0.000, 14:20:26.191
0, -3625.19, -3398.78, -3350.98, -3827.22, 0.000, 0.000, 0.000, 14:20:26.191
1, -3617.21, -3397.76, -3366.22, -3823.77, 0.000, 0.000, 0.000, 14:20:26.192
2, -3641.94, -3426.34, -3383.20, -3861.21, 0.000, 0.000, 0.000, 14:20:26.192
3, -3643.64, -3422.20, -3396.39, -3840.38, 0.000, 0.000, 0.000, 14:20:26.193
4, -3634.48, -3405.33, -3384.84, -3840.51, 0.000, 0.000, 0.000, 14:20:26.193
5, -3643.01, -3421.97, -3386.15, -3844.82, 0.000, 0.000, 0.000, 14:20:26.193
6, -3638.30, -3417.65, -3394.08, -3828.50, 0.000, 0.000, 0.000, 14:20:26.194
7, -3630.89, -3411.04, -3375.92, -3828.73, 0.000, 0.000, 0.000, 14:20:26.194
8, -3643.34, -3426.00, -3377.81, -3842.36, 0.000, 0.000, 0.000, 14:20:26.194
9, -3649.99, -3429.22, -3397.74, -3843.59, 0.000, 0.000, 0.000, 14:20:26.195
10, -3642.25, -3427.24, -3390.31, -3841.88, 0.000, 0.000, 0.000, 14:20:26.195
11, -3629.47, -3417.60, -3376.80, -3839.57, 0.000, 0.000, 0.000, 14:20:26.196
12, -3633.25, -3407.96, -3363.36, -3839.73, 0.000, 0.000, 0.000, 14:20:26.196
13, -3626.03, -3401.06, -3375.78, -3836.04, 0.000, 0.000, 0.000, 14:20:26.197
14, -3630.90, -3406.60, -3367.76, -3839.08, 0.000, 0.000, 0.000, 14:20:26.197
15, -3625.59, -3401.95, -3374.55, -3830.53, 0.000, 0.000, 0.000, 14:20:26.198
16, -3614.27, -3402.03, -3366.72, -3827.18, 0.000, 0.000, 0.000, 14:20:26.199
17, -3619.20, -3399.75, -3376.41, -3830.85, 0.000, 0.000, 0.000, 14:20:26.202
18, -3622.15, -3394.88, -3375.34, -3833.28, 0.000, 0.000, 0.000, 14:20:26.202
19, -3615.78, -3393.98, -3372.97, -3830.54, 0.000, 0.000, 0.000, 14:20:26.204
20, -3614.85, -3398.78, -3363.48, -3826.88, 0.000, 0.000, 0.000, 14:20:26.204
21, -3608.15, -3397.33, -3363.47, -3833.23, 0.000, 0.000, 0.000, 14:20:26.209
22, -3617.55, -3405.88, -3383.84, -3831.95, 0.000, 0.000, 0.000, 14:20:26.209
23, -3628.51, -3419.17, -3380.78, -3842.31, 0.000, 0.000, 0.000, 14:20:26.226
24, -3637.16, -3417.39, -3379.39, -3850.22, 0.000, 0.000, 0.000, 14:20:26.227
25, -3627.39, -3416.20, -3386.19, -3841.95, 0.000, 0.000, 0.000, 14:20:26.227
26, -3644.49, -3428.79, -3393.28, -3861.66, 0.000, 0.000, 0.000, 14:20:26.228
27, -3640.39, -3423.58, -3386.54, -3857.56, 0.000, 0.000, 0.000, 14:20:26.228
28, -3622.67, -3407.05, -3377.09, -3827.05, 0.000, 0.000, 0.000, 14:20:26.229
29, -3642.08, -3436.90, -3378.03, -3868.02, 0.000, 0.000, 0.000, 14:20:26.229
30, -3644.22, -3425.86, -3392.24, -3851.52, 0.000, 0.000, 0.000, 14:20:26.230
31, -3644.89, -3431.44, -3401.10, -3858.80, 0.000, 0.000, 0.000, 14:20:26.234
32, -3647.47, -3435.72, -3404.30, -3834.89, 0.000, 0.000, 0.000, 14:20:26.235
33, -3644.84, -3418.99, -3383.79, -3841.18, 0.000, 0.000, 0.000, 14:20:26.236
34, -3635.99, -3411.59, -3374.04, -3846.03, 0.000, 0.000, 0.000, 14:20:26.236
35, -3638.70, -3413.68, -3396.33, -3857.11, 0.000, 0.000, 0.000, 14:20:26.237
36, -3640.13, -3416.22, -3413.31, -3844.56, 0.000, 0.000, 0.000, 14:20:26.238
37, -3632.68, -3415.33, -3390.66, -3833.29, 0.000, 0.000, 0.000, 14:20:26.238
38, -3645.22, -3425.84, -3385.31, -3839.72, 0.000, 0.000, 0.000, 14:20:26.239
39, -3635.15, -3414.59, -3381.83, -3842.80, 0.000, 0.000, 0.000, 14:20:26.239
40, -3643.11, -3415.82, -3398.05, -3846.27, 0.000, 0.000, 0.000, 14:20:26.239
41, -3629.73, -3407.72, -3375.79, -3838.10, 0.000, 0.000, 0.000, 14:20:26.240
42, -3625.67, -3407.13, -3377.99, -3847.47, 0.000, 0.000, 0.000, 14:20:26.240
43, -3620.47, -3391.16, -3375.48, -3822.04, 0.000, 0.000, 0.000, 14:20:26.241
44, -3639.48, -3416.91, -3391.08, -3835.60, 0.000, 0.000, 0.000, 14:20:26.241
45, -3642.54, -3427.51, -3381.13, -3846.62, 0.000, 0.000, 0.000, 14:20:26.241
46, -3649.47, -3410.49, -3387.41, -3843.24, 0.000, 0.000, 0.000, 14:20:26.241
47, -3652.82, -3432.41, -3404.33, -3852.49, 0.000, 0.000, 0.000, 14:20:26.241
48, -3651.61, -3424.14, -3393.82, -3852.21, 0.000, 0.000, 0.000, 14:20:26.245
49, -3640.12, -3425.96, -3375.85, -3849.58, 0.000, 0.000, 0.000, 14:20:26.245
50, -3662.36, -3438.99, -3402.82, -3849.39, 0.000, 0.000, 0.000, 14:20:26.245
51, -3649.80, -3437.23, -3393.04, -3846.87, 0.000, 0.000, 0.000, 14:20:26.246
52, -3644.55, -3427.49, -3393.17, -3843.27, 0.000, 0.000, 0.000, 14:20:26.246
53, -3642.99, -3433.01, -3381.72, -3855.59, 0.000, 0.000, 0.000, 14:20:26.262
54, -3648.85, -3436.39, -3383.88, -3852.53, 0.000, 0.000, 0.000, 14:20:26.263
55, -3641.08, -3432.85, -3390.91, -3844.07, 0.000, 0.000, 0.000, 14:20:26.264
56, -3639.11, -3419.64, -3379.72, -3836.66, 0.000, 0.000, 0.000, 14:20:26.264
57, -3629.82, -3418.29, -3378.22, -3834.17, 0.000, 0.000, 0.000, 14:20:26.265
58, -3636.08, -3420.61, -3377.01, -3837.48, 0.000, 0.000, 0.000, 14:20:26.265
59, -3649.10, -3427.83, -3396.02, -3855.08, 0.000, 0.000, 0.000, 14:20:26.266
60, -3639.87, -3424.38, -3389.41, -3844.67, 0.000, 0.000, 0.000, 14:20:26.267
61, -3637.65, -3424.68, -3372.15, -3849.58, 0.000, 0.000, 0.000, 14:20:26.305
62, -3645.81, -3431.03, -3387.03, -3853.86, 0.000, 0.000, 0.000, 14:20:26.306
63, -3633.79, -3410.66, -3381.35, -3835.33, 0.000, 0.000, 0.000, 14:20:26.306
64, -3629.46, -3417.21, -3381.66, -3837.35, 0.000, 0.000, 0.000, 14:20:26.306
65, -3641.22, -3424.97, -3401.18, -3847.52, 0.000, 0.000, 0.000, 14:20:26.306
66, -3640.27, -3418.61, -3393.08, -3858.66, 0.000, 0.000, 0.000, 14:20:26.306
67, -3639.44, -3420.20, -3386.72, -3839.43, 0.000, 0.000, 0.000, 14:20:26.306
68, -3641.36, -3413.38, -3390.33, -3836.89, 0.000, 0.000, 0.000, 14:20:26.307
69, -3646.08, -3416.93, -3391.81, -3840.61, 0.000, 0.000, 0.000, 14:20:26.307
70, -3639.48, -3409.10, -3392.70, -3838.68, 0.000, 0.000, 0.000, 14:20:26.307
71, -3648.51, -3434.02, -3396.25, -3857.06, 0.000, 0.000, 0.000, 14:20:26.307
72, -3642.83, -3419.97, -3397.04, -3840.47, 0.000, 0.000, 0.000, 14:20:26.307
73, -3640.90, -3409.56, -3392.12, -3838.46, 0.000, 0.000, 0.000, 14:20:26.307
74, -3647.96, -3422.59, -3402.34, -3862.77, 0.000, 0.000, 0.000, 14:20:26.307
75, -3638.72, -3411.01, -3384.18, -3841.90, 0.000, 0.000, 0.000, 14:20:26.308
76, -3630.06, -3406.41, -3374.06, -3836.87, 0.000, 0.000, 0.000, 14:20:26.309
77, -3640.13, -3420.72, -3375.04, -3842.24, 0.000, 0.000, 0.000, 14:20:26.309
78, -3650.84, -3426.39, -3386.05, -3840.36, 0.000, 0.000, 0.000, 14:20:26.309
79, -3659.55, -3430.09, -3394.71, -3862.19, 0.000, 0.000, 0.000, 14:20:26.309
80, -3670.33, -3436.86, -3399.86, -3857.01, 0.000, 0.000, 0.000, 14:20:26.310
81, -3657.00, -3436.09, -3393.26, -3840.10, 0.000, 0.000, 0.000, 14:20:26.310
82, -3672.62, -3454.18, -3407.69, -3858.19, 0.000, 0.000, 0.000, 14:20:26.310
83, -3689.75, -3476.76, -3414.15, -3892.98, 0.000, 0.000, 0.000, 14:20:26.311
84, -3701.03, -3496.01, -3433.32, -3883.21, 0.000, 0.000, 0.000, 14:20:26.312
85, -3725.66, -3511.24, -3450.37, -3906.33, 0.000, 0.000, 0.000, 14:20:26.312
86, -3746.81, -3540.94, -3473.61, -3936.95, 0.000, 0.000, 0.000, 14:20:26.312
87, -3754.35, -3547.78, -3469.51, -3943.43, 0.000, 0.000, 0.000, 14:20:26.312
88, -3755.48, -3548.14, -3485.66, -3953.51, 0.000, 0.000, 0.000, 14:20:26.312
89, -3772.65, -3574.75, -3504.71, -3963.93, 0.000, 0.000, 0.000, 14:20:26.312
90, -3789.15, -3579.07, -3510.43, -3971.36, 0.000, 0.000, 0.000, 14:20:26.313
91, -3792.61, -3587.17, -3521.66, -3969.87, 0.000, 0.000, 0.000, 14:20:26.313
92, -3803.69, -3608.33, -3530.36, -3983.44, 0.000, 0.000, 0.000, 14:20:26.313
93, -3782.17, -3588.06, -3498.66, -3952.63, 0.000, 0.000, 0.000, 14:20:26.313
94, -3780.18, -3578.18, -3515.07, -3985.45, 0.000, 0.000, 0.000, 14:20:26.313
95, -3782.91, -3578.46, -3513.09, -3976.04, 0.000, 0.000, 0.000, 14:20:26.313
96, -3767.84, -3552.46, -3495.70, -3931.99, 0.000, 0.000, 0.000, 14:20:26.314
97, -3747.79, -3533.25, -3473.80, -3933.16, 0.000, 0.000, 0.000, 14:20:26.314
98, -3746.17, -3537.28, -3467.73, -3932.84, 0.000, 0.000, 0.000, 14:20:26.314
99, -3715.92, -3507.23, -3470.02, -3915.54, 0.000, 0.000, 0.000, 14:20:26.314
100, -3705.27, -3478.43, -3443.55, -3886.87, 0.000, 0.000, 0.000, 14:20:26.314
101, -3692.05, -3470.00, -3441.96, -3894.51, 0.000, 0.000, 0.000, 14:20:26.314
102, -3690.24, -3460.59, -3433.33, -3900.16, 0.000, 0.000, 0.000, 14:20:26.314
103, -3677.43, -3452.58, -3419.04, -3882.33, 0.000, 0.000, 0.000, 14:20:26.317
104, -3670.82, -3453.04, -3419.98, -3863.37, 0.000, 0.000, 0.000, 14:20:26.317
105, -3649.88, -3434.56, -3409.17, -3859.18, 0.000, 0.000, 0.000, 14:20:26.317
106, -3642.54, -3415.36, -3390.95, -3840.81, 0.000, 0.000, 0.000, 14:20:26.317
107, -3632.15, -3405.01, -3390.66, -3833.12, 0.000, 0.000, 0.000, 14:20:26.318
108, -3622.31, -3397.52, -3372.00, -3810.83, 0.000, 0.000, 0.000, 14:20:26.318
109, -3624.91, -3395.88, -3379.59, -3835.61, 0.000, 0.000, 0.000, 14:20:26.318
110, -3622.43, -3393.31, -3358.35, -3830.33, 0.000, 0.000, 0.000, 14:20:26.318
111, -3611.68, -3380.53, -3364.98, -3837.60, 0.000, 0.000, 0.000, 14:20:26.318
112, -3591.15, -3370.99, -3356.27, -3810.38, 0.000, 0.000, 0.000, 14:20:26.318
113, -3598.51, -3372.78, -3351.10, -3801.70, 0.000, 0.000, 0.000, 14:20:26.319
114, -3609.05, -3384.61, -3359.92, -3833.27, 0.000, 0.000, 0.000, 14:20:26.319
115, -3593.39, -3368.63, -3341.44, -3801.01, 0.000, 0.000, 0.000, 14:20:26.319
116, -3590.58, -3376.29, -3354.84, -3806.33, 0.000, 0.000, 0.000, 14:20:26.319
117, -3583.56, -3363.16, -3334.52, -3790.07, 0.000, 0.000, 0.000, 14:20:26.319
118, -3591.96, -3372.11, -3348.22, -3817.95, 0.000, 0.000, 0.000, 14:20:26.319
119, -3599.33, -3384.13, -3362.84, -3818.06, 0.000, 0.000, 0.000, 14:20:26.320
120, -3594.85, -3368.95, -3352.19, -3803.27, 0.000, 0.000, 0.000, 14:20:26.320
121, -3588.02, -3363.16, -3340.94, -3789.65, 0.000, 0.000, 0.000, 14:20:26.320
122, -3605.87, -3379.01, -3367.78, -3824.10, 0.000, 0.000, 0.000, 14:20:26.320
123, -3592.74, -3376.10, -3356.53, -3828.85, 0.000, 0.000, 0.000, 14:20:26.320
124, -3598.27, -3381.43, -3359.58, -3837.71, 0.000, 0.000, 0.000, 14:20:26.320
125, -3599.35, -3388.17, -3356.25, -3826.94, 0.000, 0.000, 0.000, 14:20:26.321
126, -3617.79, -3401.14, -3363.54, -3833.69, 0.000, 0.000, 0.000, 14:20:26.321
127, -3607.95, -3385.03, -3355.47, -3823.01, 0.000, 0.000, 0.000, 14:20:26.321
128, -3619.53, -3396.65, -3362.64, -3825.43, 0.000, 0.000, 0.000, 14:20:26.321
129, -3621.70, -3397.75, -3370.69, -3817.75, 0.000, 0.000, 0.000, 14:20:26.321
130, -3621.38, -3399.42, -3378.22, -3833.66, 0.000, 0.000, 0.000, 14:20:26.321
131, -3628.93, -3405.27, -3364.74, -3843.05, 0.000, 0.000, 0.000, 14:20:26.358
132, -3631.66, -3406.01, -3366.18, -3820.76, 0.000, 0.000, 0.000, 14:20:26.358
133, -3621.36, -3401.27, -3374.97, -3810.75, 0.000, 0.000, 0.000, 14:20:26.361
134, -3634.83, -3411.44, -3397.39, -3834.17, 0.000, 0.000, 0.000, 14:20:26.361
135, -3635.65, -3401.31, -3376.04, -3829.69, 0.000, 0.000, 0.000, 14:20:26.362
136, -3629.44, -3403.95, -3377.30, -3837.87, 0.000, 0.000, 0.000, 14:20:26.362
137, -3642.74, -3416.85, -3393.34, -3841.57, 0.000, 0.000, 0.000, 14:20:26.364
138, -3642.33, -3410.73, -3383.41, -3849.64, 0.000, 0.000, 0.000, 14:20:26.364
139, -3639.95, -3419.27, -3387.67, -3853.27, 0.000, 0.000, 0.000, 14:20:26.365
140, -3643.91, -3423.80, -3407.75, -3842.52, 0.000, 0.000, 0.000, 14:20:26.365
141, -3642.97, -3422.85, -3391.83, -3851.60, 0.000, 0.000, 0.000, 14:20:26.366
142, -3636.63, -3422.49, -3389.07, -3848.08, 0.000, 0.000, 0.000, 14:20:26.366
143, -3641.75, -3430.08, -3402.01, -3856.30, 0.000, 0.000, 0.000, 14:20:26.383
144, -3642.57, -3425.69, -3403.50, -3862.83, 0.000, 0.000, 0.000, 14:20:26.383
145, -3642.43, -3420.55, -3390.43, -3841.14, 0.000, 0.000, 0.000, 14:20:26.385
146, -3652.19, -3426.61, -3410.44, -3860.25, 0.000, 0.000, 0.000, 14:20:26.385
147, -3654.53, -3431.03, -3405.40, -3864.49, 0.000, 0.000, 0.000, 14:20:26.385
148, -3638.13, -3421.25, -3392.70, -3857.69, 0.000, 0.000, 0.000, 14:20:26.385
149, -3650.28, -3434.15, -3401.75, -3849.49, 0.000, 0.000, 0.000, 14:20:26.395
150, -3655.37, -3440.37, -3406.76, -3868.78, 0.000, 0.000, 0.000, 14:20:26.395
151, -3668.59, -3446.38, -3424.50, -3882.58, 0.000, 0.000, 0.000, 14:20:26.395
152, -3664.39, -3445.87, -3407.73, -3866.76, 0.000, 0.000, 0.000, 14:20:26.395
153, -3650.73, -3430.49, -3407.28, -3861.62, 0.000, 0.000, 0.000, 14:20:26.398
154, -3642.26, -3431.99, -3394.16, -3858.61, 0.000, 0.000, 0.000, 14:20:26.398
155, -3660.96, -3451.86, -3402.47, -3859.81, 0.000, 0.000, 0.000, 14:20:26.398
156, -3641.82, -3424.84, -3388.73, -3844.42, 0.000, 0.000, 0.000, 14:20:26.399
157, -3632.72, -3416.43, -3390.39, -3840.58, 0.000, 0.000, 0.000, 14:20:26.399
158, -3639.45, -3427.75, -3403.68, -3861.52, 0.000, 0.000, 0.000, 14:20:26.399
159, -3640.55, -3410.83, -3395.32, -3842.74, 0.000, 0.000, 0.000, 14:20:26.399
160, -3633.63, -3402.21, -3378.47, -3845.69, 0.000, 0.000, 0.000, 14:20:26.399
161, -3638.51, -3404.08, -3397.40, -3832.95, 0.000, 0.000, 0.000, 14:20:26.399
162, -3632.60, -3404.83, -3378.16, -3848.29, 0.000, 0.000, 0.000, 14:20:26.399
163, -3623.47, -3397.08, -3385.53, -3836.72, 0.000, 0.000, 0.000, 14:20:26.400
164, -3633.41, -3410.23, -3382.17, -3834.49, 0.000, 0.000, 0.000, 14:20:26.401
165, -3623.96, -3399.10, -3365.94, -3828.26, 0.000, 0.000, 0.000, 14:20:26.401
166, -3630.51, -3396.61, -3373.11, -3844.63, 0.000, 0.000, 0.000, 14:20:26.402
167, -3631.37, -3403.71, -3370.34, -3835.16, 0.000, 0.000, 0.000, 14:20:26.403
168, -3617.18, -3390.47, -3371.11, -3828.72, 0.000, 0.000, 0.000, 14:20:26.403
169, -3614.51, -3391.19, -3366.29, -3812.45, 0.000, 0.000, 0.000, 14:20:26.403
170, -3625.84, -3404.94, -3383.70, -3842.33, 0.000, 0.000, 0.000, 14:20:26.403
171, -3629.04, -3398.09, -3372.43, -3824.23, 0.000, 0.000, 0.000, 14:20:26.404
172, -3616.87, -3398.40, -3366.47, -3828.85, 0.000, 0.000, 0.000, 14:20:26.404
173, -3624.67, -3391.53, -3349.22, -3819.38, 0.000, 0.000, 0.000, 14:20:26.404
174, -3622.03, -3396.17, -3364.86, -3821.27, 0.000, 0.000, 0.000, 14:20:26.404
175, -3607.43, -3378.23, -3348.52, -3804.75, 0.000, 0.000, 0.000, 14:20:26.433
176, -3617.09, -3393.55, -3364.32, -3823.37, 0.000, 0.000, 0.000, 14:20:26.433
177, -3612.56, -3391.48, -3347.43, -3811.59, 0.000, 0.000, 0.000, 14:20:26.433
178, -3615.82, -3391.38, -3369.89, -3838.90, 0.000, 0.000, 0.000, 14:20:26.433
179, -3611.50, -3394.19, -3364.59, -3834.68, 0.000, 0.000, 0.000, 14:20:26.434
180, -3618.35, -3394.67, -3376.38, -3828.55, 0.000, 0.000, 0.000, 14:20:26.434
181, -3619.42, -3394.29, -3373.15, -3810.31, 0.000, 0.000, 0.000, 14:20:26.460
182, -3634.17, -3411.64, -3379.37, -3844.21, 0.000, 0.000, 0.000, 14:20:26.461
183, -3620.40, -3405.78, -3370.45, -3836.99, 0.000, 0.000, 0.000, 14:20:26.461
184, -3603.58, -3400.27, -3370.94, -3836.27, 0.000, 0.000, 0.000, 14:20:26.461
185, -3608.71, -3399.02, -3357.73, -3829.72, 0.000, 0.000, 0.000, 14:20:26.461
186, -3618.02, -3403.48, -3374.09, -3821.03, 0.000, 0.000, 0.000, 14:20:26.461
187, -3615.37, -3392.90, -3371.49, -3840.71, 0.000, 0.000, 0.000, 14:20:26.476
188, -3622.92, -3397.81, -3368.64, -3832.09, 0.000, 0.000, 0.000, 14:20:26.477
189, -3633.18, -3399.38, -3383.48, -3823.90, 0.000, 0.000, 0.000, 14:20:26.496
190, -3621.66, -3396.97, -3384.65, -3825.85, 0.000, 0.000, 0.000, 14:20:26.496
191, -3617.45, -3403.35, -3378.79, -3822.29, 0.000, 0.000, 0.000, 14:20:26.496
192, -3607.59, -3395.45, -3364.30, -3821.15, 0.000, 0.000, 0.000, 14:20:26.496
193, -3600.57, -3386.16, -3354.71, -3823.73, 0.000, 0.000, 0.000, 14:20:26.506
194, -3630.29, -3406.55, -3382.46, -3833.34, 0.000, 0.000, 0.000, 14:20:26.509
195, -3635.04, -3412.73, -3386.26, -3842.50, 0.000, 0.000, 0.000, 14:20:26.563
196, -3625.84, -3399.54, -3379.95, -3827.68, 0.000, 0.000, 0.000, 14:20:26.564
197, -3624.15, -3402.54, -3378.93, -3821.39, 0.000, 0.000, 0.000, 14:20:26.564
198, -3622.55, -3403.45, -3372.63, -3846.87, 0.000, 0.000, 0.000, 14:20:26.564
199, -3616.35, -3395.32, -3363.50, -3835.45, 0.000, 0.000, 0.000, 14:20:26.564
200, -3618.23, -3395.58, -3370.96, -3829.15, 0.000, 0.000, 0.000, 14:20:26.564
0, -3616.54, -3395.39, -3364.57, -3825.98, 0.000, 0.000, 0.000, 14:20:26.668
1, -3625.16, -3398.64, -3370.03, -3828.97, 0.000, 0.000, 0.000, 14:20:26.669
2, -3652.38, -3415.07, -3385.53, -3844.99, 0.000, 0.000, 0.000, 14:20:26.669
3, -3636.35, -3413.97, -3391.70, -3831.61, 0.000, 0.000, 0.000, 14:20:26.699
4, -3624.98, -3403.80, -3371.01, -3840.54, 0.000, 0.000, 0.000, 14:20:26.700
5, -3645.39, -3415.73, -3388.72, -3840.01, 0.000, 0.000, 0.000, 14:20:26.756
6, -3631.99, -3408.55, -3377.13, -3831.86, 0.000, 0.000, 0.000, 14:20:26.756
7, -3627.01, -3396.90, -3373.34, -3818.06, 0.000, 0.000, 0.000, 14:20:26.757
8, -3631.96, -3406.78, -3374.36, -3820.92, 0.000, 0.000, 0.000, 14:20:26.757
9, -3632.03, -3403.61, -3379.25, -3818.63, 0.000, 0.000, 0.000, 14:20:26.777
10, -3639.48, -3411.75, -3389.34, -3842.60, 0.000, 0.000, 0.000, 14:20:26.778
11, -3647.23, -3418.81, -3377.24, -3835.11, 0.000, 0.000, 0.000, 14:20:26.793
12, -3640.56, -3409.53, -3388.19, -3838.39, 0.000, 0.000, 0.000, 14:20:26.793
13, -3641.83, -3420.91, -3397.32, -3846.54, 0.000, 0.000, 0.000, 14:20:26.794
14, -3645.82, -3428.24, -3405.75, -3849.33, 0.000, 0.000, 0.000, 14:20:26.794
15, -3645.61, -3420.12, -3392.74, -3868.01, 0.000, 0.000, 0.000, 14:20:26.795
16, -3634.74, -3421.62, -3399.47, -3841.28, 0.000, 0.000, 0.000, 14:20:26.795
17, -3644.00, -3422.33, -3393.45, -3841.41, 0.000, 0.000, 0.000, 14:20:26.796
18, -3635.39, -3418.74, -3384.09, -3844.22, 0.000, 0.000, 0.000, 14:20:26.796
19, -3632.76, -3414.53, -3378.87, -3838.72, 0.000, 0.000, 0.000, 14:20:26.797
20, -3643.41, -3430.67, -3379.64, -3844.53, 0.000, 0.000, 0.000, 14:20:26.797
21, -3642.56, -3416.88, -3378.79, -3841.74, 0.000, 0.000, 0.000, 14:20:26.798
22, -3631.67, -3415.83, -3378.76, -3834.87, 0.000, 0.000, 0.000, 14:20:26.798
23, -3652.03, -3433.20, -3392.32, -3838.79, 0.000, 0.000, 0.000, 14:20:26.800
24, -3652.99, -3431.45, -3396.19, -3842.85, 0.000, 0.000, 0.000, 14:20:26.800
25, -3657.31, -3435.54, -3404.42, -3862.66, 0.000, 0.000, 0.000, 14:20:26.801
26, -3665.00, -3436.55, -3393.36, -3845.07, 0.000, 0.000, 0.000, 14:20:26.801
27, -3653.58, -3434.17, -3386.93, -3847.06, 0.000, 0.000, 0.000, 14:20:26.802
28, -3640.04, -3417.71, -3385.51, -3834.48, 0.000, 0.000, 0.000, 14:20:26.802
29, -3634.95, -3428.96, -3386.11, -3842.48, 0.000, 0.000, 0.000, 14:20:26.829
30, -3635.57, -3414.35, -3375.19, -3856.02, 0.000, 0.000, 0.000, 14:20:26.830
31, -3632.72, -3405.75, -3378.20, -3839.82, 0.000, 0.000, 0.000, 14:20:26.831
32, -3644.52, -3417.63, -3399.14, -3860.35, 0.000, 0.000, 0.000, 14:20:26.831
33, -3640.89, -3416.82, -3396.72, -3856.04, 0.000, 0.000, 0.000, 14:20:26.835
34, -3642.34, -3413.63, -3394.72, -3829.58, 0.000, 0.000, 0.000, 14:20:26.835
35, -3645.36, -3428.00, -3379.15, -3834.94, 0.000, 0.000, 0.000, 14:20:26.837
36, -3627.68, -3423.25, -3379.91, -3836.85, 0.000, 0.000, 0.000, 14:20:26.837
37, -3632.30, -3415.66, -3393.15, -3845.28, 0.000, 0.000, 0.000, 14:20:26.839
38, -3641.56, -3418.87, -3390.45, -3850.74, 0.000, 0.000, 0.000, 14:20:26.839
39, -3638.08, -3411.91, -3381.06, -3847.73, 0.000, 0.000, 0.000, 14:20:26.840
40, -3618.63, -3396.23, -3369.34, -3822.05, 0.000, 0.000, 0.000, 14:20:26.840
41, -3618.71, -3399.65, -3373.46, -3846.91, 0.000, 0.000, 0.000, 14:20:26.841
42, -3618.51, -3401.04, -3380.04, -3831.30, 0.000, 0.000, 0.000, 14:20:26.841
43, -3622.88, -3403.71, -3383.52, -3838.03, 0.000, 0.000, 0.000, 14:20:26.841
44, -3638.79, -3422.43, -3390.41, -3835.43, 0.000, 0.000, 0.000, 14:20:26.841
45, -3630.47, -3407.68, -3391.65, -3848.47, 0.000, 0.000, 0.000, 14:20:26.842
46, -3628.29, -3412.76, -3394.81, -3849.29, 0.000, 0.000, 0.000, 14:20:26.843
47, -3618.74, -3402.80, -3388.36, -3833.24, 0.000, 0.000, 0.000, 14:20:26.843
48, -3620.32, -3398.77, -3378.18, -3850.59, 0.000, 0.000, 0.000, 14:20:26.843
49, -3617.61, -3403.75, -3371.33, -3855.23, 0.000, 0.000, 0.000, 14:20:26.844
50, -3635.52, -3420.82, -3382.12, -3845.97, 0.000, 0.000, 0.000, 14:20:26.844
51, -3641.36, -3411.42, -3391.74, -3856.00, 0.000, 0.000, 0.000, 14:20:26.844
52, -3638.82, -3401.19, -3384.74, -3847.76, 0.000, 0.000, 0.000, 14:20:26.844
53, -3642.41, -3418.15, -3386.90, -3844.10, 0.000, 0.000, 0.000, 14:20:26.845
54, -3655.74, -3418.33, -3392.93, -3847.41, 0.000, 0.000, 0.000, 14:20:26.845
55, -3637.45, -3416.94, -3376.22, -3858.65, 0.000, 0.000, 0.000, 14:20:26.845
56, -3659.94, -3434.45, -3397.53, -3863.73, 0.000, 0.000, 0.000, 14:20:26.845
57, -3657.79, -3431.41, -3394.82, -3853.31, 0.000, 0.000, 0.000, 14:20:26.850
58, -3650.62, -3424.05, -3404.22, -3857.98, 0.000, 0.000, 0.000, 14:20:26.853
59, -3658.06, -3439.12, -3394.51, -3858.32, 0.000, 0.000, 0.000, 14:20:26.854
60, -3648.14, -3425.84, -3390.71, -3830.26, 0.000, 0.000, 0.000, 14:20:26.854
61, -3646.76, -3422.51, -3389.33, -3849.47, 0.000, 0.000, 0.000, 14:20:26.854
62, -3651.66, -3424.32, -3389.34, -3849.67, 0.000, 0.000, 0.000, 14:20:26.854
63, -3644.14, -3427.60, -3394.46, -3836.01, 0.000, 0.000, 0.000, 14:20:26.855
64, -3649.61, -3421.65, -3389.98, -3830.25, 0.000, 0.000, 0.000, 14:20:26.855
65, -3663.82, -3443.69, -3401.01, -3867.56, 0.000, 0.000, 0.000, 14:20:26.930
66, -3649.47, -3440.03, -3395.19, -3853.70, 0.000, 0.000, 0.000, 14:20:26.930
67, -3639.52, -3429.08, -3384.23, -3844.84, 0.000, 0.000, 0.000, 14:20:26.949
68, -3643.35, -3430.93, -3384.56, -3833.89, 0.000, 0.000, 0.000, 14:20:26.949
69, -3644.01, -3427.72, -3381.30, -3859.73, 0.000, 0.000, 0.000, 14:20:26.950
70, -3643.64, -3426.30, -3384.82, -3858.52, 0.000, 0.000, 0.000, 14:20:26.950
71, -3651.14, -3424.81, -3389.67, -3856.80, 0.000, 0.000, 0.000, 14:20:26.951
72, -3632.78, -3412.66, -3377.50, -3837.53, 0.000, 0.000, 0.000, 14:20:26.951
73, -3629.12, -3415.90, -3390.86, -3840.98, 0.000, 0.000, 0.000, 14:20:26.951
74, -3649.38, -3428.32, -3398.53, -3859.90, 0.000, 0.000, 0.000, 14:20:26.952
75, -3638.62, -3418.58, -3403.27, -3832.50, 0.000, 0.000, 0.000, 14:20:26.956
76, -3619.79, -3410.83, -3373.75, -3830.33, 0.000, 0.000, 0.000, 14:20:26.957
77, -3628.70, -3412.09, -3389.61, -3862.18, 0.000, 0.000, 0.000, 14:20:26.957
78, -3623.76, -3404.68, -3388.04, -3858.81, 0.000, 0.000, 0.000, 14:20:26.957
79, -3623.55, -3408.92, -3380.29, -3849.82, 0.000, 0.000, 0.000, 14:20:26.958
80, -3632.40, -3420.28, -3382.61, -3846.45, 0.000, 0.000, 0.000, 14:20:26.958
81, -3633.79, -3415.98, -3390.36, -3854.39, 0.000, 0.000, 0.000, 14:20:26.959
82, -3639.65, -3417.05, -3389.15, -3859.09, 0.000, 0.000, 0.000, 14:20:26.959
83, -3636.55, -3410.32, -3401.58, -3853.51, 0.000, 0.000, 0.000, 14:20:26.959
84, -3627.26, -3410.00, -3385.61, -3848.69, 0.000, 0.000, 0.000, 14:20:26.959
85, -3622.11, -3405.46, -3367.94, -3847.59, 0.000, 0.000, 0.000, 14:20:27.013
86, -3634.36, -3425.22, -3390.27, -3855.60, 0.000, 0.000, 0.000, 14:20:27.013
87, -3634.72, -3422.63, -3391.53, -3853.43, 0.000, 0.000, 0.000, 14:20:27.014
88, -3628.34, -3417.17, -3384.98, -3836.84, 0.000, 0.000, 0.000, 14:20:27.014
89, -3631.85, -3414.77, -3382.80, -3838.93, 0.000, 0.000, 0.000, 14:20:27.017
90, -3623.73, -3403.54, -3370.20, -3836.00, 0.000, 0.000, 0.000, 14:20:27.018
91, -3621.74, -3397.46, -3367.30, -3808.38, 0.000, 0.000, 0.000, 14:20:27.084
92, -3635.50, -3424.02, -3373.90, -3832.63, 0.000, 0.000, 0.000, 14:20:27.084
93, -3641.91, -3428.65, -3384.27, -3849.29, 0.000, 0.000, 0.000, 14:20:27.085
94, -3638.11, -3416.12, -3378.12, -3826.10, 0.000, 0.000, 0.000, 14:20:27.085
95, -3637.97, -3418.73, -3374.16, -3835.56, 0.000, 0.000, 0.000, 14:20:27.085
96, -3627.05, -3410.80, -3371.17, -3832.49, 0.000, 0.000, 0.000, 14:20:27.086
97, -3633.53, -3409.44, -3394.85, -3841.99, 0.000, 0.000, 0.000, 14:20:27.131
98, -3647.88, -3418.41, -3384.30, -3855.24, 0.000, 0.000, 0.000, 14:20:27.131
99, -3630.41, -3412.65, -3380.53, -3852.88, 0.000, 0.000, 0.000, 14:20:27.147
100, -3630.31, -3413.95, -3401.75, -3829.38, 0.000, 0.000, 0.000, 14:20:27.148
101, -3632.27, -3418.78, -3387.94, -3852.61, 0.000, 0.000, 0.000, 14:20:27.148
102, -3637.98, -3411.52, -3394.50, -3852.56, 0.000, 0.000, 0.000, 14:20:27.148
103, -3633.02, -3410.68, -3387.92, -3844.00, 0.000, 0.000, 0.000, 14:20:27.149
104, -3646.06, -3423.44, -3392.72, -3847.45, 0.000, 0.000, 0.000, 14:20:27.150
105, -3644.61, -3426.86, -3396.24, -3856.95, 0.000, 0.000, 0.000, 14:20:27.150
106, -3641.40, -3418.35, -3386.89, -3841.73, 0.000, 0.000, 0.000, 14:20:27.151
107, -3650.82, -3429.71, -3402.80, -3857.21, 0.000, 0.000, 0.000, 14:20:27.151
108, -3635.97, -3425.76, -3392.86, -3846.26, 0.000, 0.000, 0.000, 14:20:27.151
109, -3646.91, -3429.03, -3406.98, -3853.61, 0.000, 0.000, 0.000, 14:20:27.209
110, -3657.45, -3433.45, -3390.83, -3861.74, 0.000, 0.000, 0.000, 14:20:27.210
111, -3653.54, -3432.15, -3387.89, -3856.85, 0.000, 0.000, 0.000, 14:20:27.210
112, -3640.17, -3423.06, -3393.44, -3845.06, 0.000, 0.000, 0.000, 14:20:27.210
113, -3664.15, -3445.36, -3404.02, -3854.11, 0.000, 0.000, 0.000, 14:20:27.211
114, -3653.73, -3439.37, -3401.31, -3866.55, 0.000, 0.000, 0.000, 14:20:27.211
115, -3643.57, -3419.17, -3405.76, -3837.36, 0.000, 0.000, 0.000, 14:20:27.212
116, -3651.00, -3422.54, -3384.68, -3838.46, 0.000, 0.000, 0.000, 14:20:27.212
117, -3652.12, -3417.16, -3401.34, -3854.17, 0.000, 0.000, 0.000, 14:20:27.213
118, -3644.67, -3421.33, -3386.67, -3852.18, 0.000, 0.000, 0.000, 14:20:27.213
119, -3651.69, -3423.47, -3381.74, -3846.98, 0.000, 0.000, 0.000, 14:20:27.213
120, -3639.55, -3419.50, -3405.74, -3833.96, 0.000, 0.000, 0.000, 14:20:27.213
121, -3643.58, -3412.02, -3395.03, -3851.82, 0.000, 0.000, 0.000, 14:20:27.214
122, -3648.90, -3417.66, -3396.77, -3855.38, 0.000, 0.000, 0.000, 14:20:27.214
123, -3645.58, -3416.90, -3399.86, -3857.02, 0.000, 0.000, 0.000, 14:20:27.214
124, -3634.99, -3409.08, -3394.57, -3852.41, 0.000, 0.000, 0.000, 14:20:27.214
125, -3652.85, -3430.57, -3398.28, -3861.76, 0.000, 0.000, 0.000, 14:20:27.214
126, -3647.74, -3424.21, -3398.62, -3842.14, 0.000, 0.000, 0.000, 14:20:27.214
127, -3646.64, -3418.76, -3395.34, -3852.22, 0.000, 0.000, 0.000, 14:20:27.217
128, -3645.85, -3424.52, -3399.78, -3854.65, 0.000, 0.000, 0.000, 14:20:27.218
129, -3643.93, -3424.07, -3396.18, -3855.88, 0.000, 0.000, 0.000, 14:20:27.218
130, -3633.09, -3411.41, -3380.85, -3828.55, 0.000, 0.000, 0.000, 14:20:27.218
131, -3632.32, -3413.51, -3382.72, -3842.74, 0.000, 0.000, 0.000, 14:20:27.219
132, -3640.34, -3413.34, -3403.59, -3837.73, 0.000, 0.000, 0.000, 14:20:27.219
133, -3635.30, -3407.22, -3388.91, -3853.03, 0.000, 0.000, 0.000, 14:20:27.241
134, -3646.16, -3422.18, -3407.24, -3845.97, 0.000, 0.000, 0.000, 14:20:27.241
135, -3652.75, -3422.82, -3397.67, -3848.36, 0.000, 0.000, 0.000, 14:20:27.242
136, -3647.54, -3426.47, -3398.28, -3855.24, 0.000, 0.000, 0.000, 14:20:27.242
137, -3647.93, -3421.95, -3399.83, -3859.72, 0.000, 0.000, 0.000, 14:20:27.244
138, -3641.02, -3413.57, -3401.44, -3841.38, 0.000, 0.000, 0.000, 14:20:27.244
139, -3625.45, -3407.15, -3380.12, -3841.46, 0.000, 0.000, 0.000, 14:20:27.245
140, -3638.52, -3414.86, -3390.96, -3854.16, 0.000, 0.000, 0.000, 14:20:27.245
141, -3642.32, -3415.60, -3380.92, -3853.34, 0.000, 0.000, 0.000, 14:20:27.246
142, -3633.87, -3414.68, -3382.46, -3837.83, 0.000, 0.000, 0.000, 14:20:27.246
143, -3652.10, -3437.21, -3385.27, -3834.78, 0.000, 0.000, 0.000, 14:20:27.261
144, -3639.47, -3431.35, -3380.88, -3843.83, 0.000, 0.000, 0.000, 14:20:27.261
145, -3646.45, -3429.79, -3393.38, -3852.61, 0.000, 0.000, 0.000, 14:20:27.315
146, -3645.98, -3426.53, -3393.84, -3848.87, 0.000, 0.000, 0.000, 14:20:27.316
147, -3624.19, -3406.00, -3359.53, -3826.41, 0.000, 0.000, 0.000, 14:20:27.316
148, -3614.10, -3402.09, -3382.51, -3835.38, 0.000, 0.000, 0.000, 14:20:27.317
149, -3632.28, -3411.23, -3395.92, -3851.86, 0.000, 0.000, 0.000, 14:20:27.318
150, -3629.59, -3403.46, -3378.60, -3839.90, 0.000, 0.000, 0.000, 14:20:27.318
151, -3637.03, -3410.60, -3385.03, -3837.10, 0.000, 0.000, 0.000, 14:20:27.349
152, -3630.87, -3415.00, -3371.57, -3837.31, 0.000, 0.000, 0.000, 14:20:27.349
153, -3654.71, -3430.98, -3398.88, -3869.61, 0.000, 0.000, 0.000, 14:20:27.353
154, -3600.09, -3384.12, -3357.96, -3827.24, 0.000, 0.000, 0.000, 14:20:27.353
155, -3671.49, -3451.76, -3419.78, -3880.40, 0.000, 0.000, 0.000, 14:20:27.354
156, -3639.61, -3427.44, -3394.31, -3856.89, 0.000, 0.000, 0.000, 14:20:27.354
157, -3642.78, -3425.87, -3409.51, -3856.99, 0.000, 0.000, 0.000, 14:20:27.356
158, -3655.42, -3427.43, -3413.69, -3864.72, 0.000, 0.000, 0.000, 14:20:27.356
159, -3611.54, -3393.99, -3369.45, -3816.42, 0.000, 0.000, 0.000, 14:20:27.357
160, -3635.29, -3410.06, -3399.46, -3820.04, 0.000, 0.000, 0.000, 14:20:27.357
161, -3643.96, -3424.74, -3393.35, -3845.13, 0.000, 0.000, 0.000, 14:20:27.358
162, -3681.61, -3457.70, -3429.18, -3865.87, 0.000, 0.000, 0.000, 14:20:27.358
163, -3617.27, -3404.27, -3377.00, -3800.86, 0.000, 0.000, 0.000, 14:20:27.360
164, -3636.13, -3424.90, -3377.94, -3839.68, 0.000, 0.000, 0.000, 14:20:27.361
165, -3653.12, -3423.86, -3388.24, -3854.28, 0.000, 0.000, 0.000, 14:20:27.377
166, -3650.61, -3428.18, -3398.10, -3838.85, 0.000, 0.000, 0.000, 14:20:27.378
167, -3678.96, -3449.00, -3415.85, -3870.87, 0.000, 0.000, 0.000, 14:20:27.378
168, -3629.81, -3388.44, -3393.15, -3843.30, 0.000, 0.000, 0.000, 14:20:27.378
169, -3620.09, -3374.32, -3375.31, -3825.57, 0.000, 0.000, 0.000, 14:20:27.420
170, -3637.22, -3451.56, -3386.55, -3861.50, 0.000, 0.000, 0.000, 14:20:27.420
171, -3651.66, -3458.08, -3398.49, -3861.77, 0.000, 0.000, 0.000, 14:20:27.423
172, -3644.07, -3439.20, -3396.74, -3853.37, 0.000, 0.000, 0.000, 14:20:27.424
173, -3657.55, -3451.90, -3399.51, -3870.55, 0.000, 0.000, 0.000, 14:20:27.424
174, -3665.80, -3447.38, -3408.98, -3860.72, 0.000, 0.000, 0.000, 14:20:27.425
175, -3649.42, -3422.68, -3389.76, -3847.69, 0.000, 0.000, 0.000, 14:20:27.456
176, -3653.64, -3422.49, -3397.07, -3839.32, 0.000, 0.000, 0.000, 14:20:27.457
177, -3636.70, -3377.07, -3390.67, -3844.32, 0.000, 0.000, 0.000, 14:20:27.457
178, -3632.98, -3407.28, -3396.87, -3846.98, 0.000, 0.000, 0.000, 14:20:27.458
179, -3642.26, -3439.53, -3397.51, -3861.41, 0.000, 0.000, 0.000, 14:20:27.459
180, -3634.72, -3425.38, -3401.53, -3862.51, 0.000, 0.000, 0.000, 14:20:27.460
181, -3639.99, -3426.13, -3396.74, -3849.80, 0.000, 0.000, 0.000, 14:20:27.460
182, -3634.86, -3429.40, -3383.07, -3846.23, 0.000, 0.000, 0.000, 14:20:27.461
183, -3636.46, -3417.63, -3377.06, -3838.25, 0.000, 0.000, 0.000, 14:20:27.466
184, -3620.87, -3398.85, -3373.73, -3838.00, 0.000, 0.000, 0.000, 14:20:27.466
185, -3621.52, -3394.65, -3370.22, -3817.35, 0.000, 0.000, 0.000, 14:20:27.467
186, -3631.82, -3406.75, -3383.94, -3846.76, 0.000, 0.000, 0.000, 14:20:27.468
187, -3619.50, -3402.27, -3369.74, -3828.16, 0.000, 0.000, 0.000, 14:20:27.486
188, -3630.94, -3409.14, -3368.40, -3828.40, 0.000, 0.000, 0.000, 14:20:27.487
189, -3633.37, -3390.10, -3388.23, -3835.95, 0.000, 0.000, 0.000, 14:20:27.521
190, -3634.49, -3418.49, -3379.49, -3836.04, 0.000, 0.000, 0.000, 14:20:27.522
191, -3629.35, -3418.39, -3369.92, -3833.72, 0.000, 0.000, 0.000, 14:20:27.522
192, -3604.83, -3390.47, -3335.23, -3816.08, 0.000, 0.000, 0.000, 14:20:27.523
193, -3604.28, -3387.79, -3338.94, -3821.23, 0.000, 0.000, 0.000, 14:20:27.533
194, -3615.77, -3393.99, -3355.25, -3839.51, 0.000, 0.000, 0.000, 14:20:27.534
195, -3594.99, -3368.17, -3342.70, -3798.03, 0.000, 0.000, 0.000, 14:20:27.534
196, -3583.88, -3356.71, -3334.90, -3790.18, 0.000, 0.000, 0.000, 14:20:27.535
197, -3615.75, -3392.90, -3367.17, -3817.84, 0.000, 0.000, 0.000, 14:20:27.561
198, -3617.95, -3388.61, -3367.97, -3837.16, 0.000, 0.000, 0.000, 14:20:27.561
199, -3600.66, -3374.60, -3351.43, -3807.75, 0.000, 0.000, 0.000, 14:20:27.598
200, -3602.05, -3382.09, -3350.24, -3812.07, 0.000, 0.000, 0.000, 14:20:27.598
0, -3617.21, -3390.22, -3371.67, -3832.03, 0.000, 0.000, 0.000, 14:20:27.638
1, -3617.57, -3388.09, -3366.54, -3819.41, 0.000, 0.000, 0.000, 14:20:27.639
2, -3651.97, -3430.39, -3397.88, -3851.27, 0.000, 0.000, 0.000, 14:20:27.639
3, -3665.52, -3451.03, -3422.38, -3864.61, 0.000, 0.000, 0.000, 14:20:27.656
4, -3680.89, -3464.40, -3428.11, -3884.58, 0.000, 0.000, 0.000, 14:20:27.656
5, -3670.54, -3451.94, -3423.47, -3876.17, 0.000, 0.000, 0.000, 14:20:27.656
6, -3660.97, -3433.95, -3415.00, -3855.56, 0.000, 0.000, 0.000, 14:20:27.656
7, -3658.36, -3431.84, -3410.50, -3852.02, 0.000, 0.000, 0.000, 14:20:27.675
8, -3680.87, -3453.47, -3437.34, -3872.37, 0.000, 0.000, 0.000, 14:20:27.676
9, -3675.55, -3455.28, -3435.88, -3860.30, 0.000, 0.000, 0.000, 14:20:27.676
10, -3674.38, -3447.48, -3420.32, -3877.85, 0.000, 0.000, 0.000, 14:20:27.676
11, -3668.27, -3443.26, -3419.53, -3874.37, 0.000, 0.000, 0.000, 14:20:27.676
12, -3656.87, -3443.17, -3406.89, -3868.42, 0.000, 0.000, 0.000, 14:20:27.676
13, -3662.65, -3446.39, -3395.06, -3866.66, 0.000, 0.000, 0.000, 14:20:27.676
14, -3674.71, -3458.41, -3422.23, -3875.88, 0.000, 0.000, 0.000, 14:20:27.677
15, -3668.11, -3445.44, -3398.09, -3851.65, 0.000, 0.000, 0.000, 14:20:27.677
16, -3655.60, -3440.20, -3397.99, -3857.23, 0.000, 0.000, 0.000, 14:20:27.677
17, -3677.55, -3457.27, -3416.65, -3887.99, 0.000, 0.000, 0.000, 14:20:27.677
18, -3661.18, -3448.47, -3411.80, -3863.84, 0.000, 0.000, 0.000, 14:20:27.677
19, -3658.29, -3443.34, -3412.18, -3848.86, 0.000, 0.000, 0.000, 14:20:27.677
20, -3663.01, -3445.55, -3408.54, -3865.96, 0.000, 0.000, 0.000, 14:20:27.677
21, -3659.92, -3445.27, -3409.09, -3862.19, 0.000, 0.000, 0.000, 14:20:27.678
22, -3650.60, -3431.55, -3405.83, -3868.60, 0.000, 0.000, 0.000, 14:20:27.678
23, -3671.07, -3445.92, -3408.89, -3867.05, 0.000, 0.000, 0.000, 14:20:27.721
24, -3666.47, -3438.31, -3419.88, -3866.01, 0.000, 0.000, 0.000, 14:20:27.721
25, -3665.58, -3442.48, -3420.65, -3889.65, 0.000, 0.000, 0.000, 14:20:27.755
26, -3664.58, -3439.10, -3416.05, -3858.58, 0.000, 0.000, 0.000, 14:20:27.756
27, -3651.94, -3429.04, -3409.77, -3857.31, 0.000, 0.000, 0.000, 14:20:27.756
28, -3653.66, -3431.58, -3403.23, -3850.08, 0.000, 0.000, 0.000, 14:20:27.756
29, -3657.86, -3431.01, -3389.48, -3863.93, 0.000, 0.000, 0.000, 14:20:27.757
30, -3639.01, -3420.79, -3395.22, -3855.09, 0.000, 0.000, 0.000, 14:20:27.757
31, -3640.86, -3427.98, -3397.93, -3860.72, 0.000, 0.000, 0.000, 14:20:27.812
32, -3651.96, -3442.43, -3400.40, -3871.23, 0.000, 0.000, 0.000, 14:20:27.813
33, -3646.29, -3434.61, -3391.71, -3855.09, 0.000, 0.000, 0.000, 14:20:27.813
34, -3630.90, -3410.65, -3381.87, -3837.53, 0.000, 0.000, 0.000, 14:20:27.813
35, -3641.52, -3422.55, -3390.92, -3849.47, 0.000, 0.000, 0.000, 14:20:27.854
36, -3627.41, -3409.35, -3384.24, -3844.12, 0.000, 0.000, 0.000, 14:20:27.854
37, -3635.05, -3418.24, -3397.52, -3836.08, 0.000, 0.000, 0.000, 14:20:27.856
38, -3641.89, -3418.16, -3391.53, -3841.71, 0.000, 0.000, 0.000, 14:20:27.856
39, -3642.76, -3416.93, -3392.77, -3841.06, 0.000, 0.000, 0.000, 14:20:27.856
40, -3646.09, -3416.80, -3391.69, -3836.08, 0.000, 0.000, 0.000, 14:20:27.857
41, -3656.48, -3433.39, -3402.57, -3852.48, 0.000, 0.000, 0.000, 14:20:27.921
42, -3651.45, -3427.92, -3392.37, -3854.06, 0.000, 0.000, 0.000, 14:20:27.921
43, -3646.34, -3427.98, -3395.83, -3840.84, 0.000, 0.000, 0.000, 14:20:27.922
44, -3648.51, -3431.28, -3403.20, -3852.57, 0.000, 0.000, 0.000, 14:20:27.922
45, -3647.74, -3427.34, -3395.09, -3854.35, 0.000, 0.000, 0.000, 14:20:27.923
46, -3652.79, -3430.84, -3395.62, -3856.15, 0.000, 0.000, 0.000, 14:20:27.923
47, -3652.15, -3424.64, -3396.53, -3853.39, 0.000, 0.000, 0.000, 14:20:27.993
48, -3641.11, -3420.71, -3407.31, -3844.20, 0.000, 0.000, 0.000, 14:20:27.994
49, -3639.88, -3417.19, -3382.92, -3827.87, 0.000, 0.000, 0.000, 14:20:28.036
50, -3643.23, -3422.54, -3390.35, -3839.04, 0.000, 0.000, 0.000, 14:20:28.037
51, -3641.91, -3419.57, -3394.15, -3841.14, 0.000, 0.000, 0.000, 14:20:28.064
52, -3640.82, -3412.32, -3392.54, -3842.96, 0.000, 0.000, 0.000, 14:20:28.064
53, -3643.98, -3416.67, -3387.26, -3851.35, 0.000, 0.000, 0.000, 14:20:28.064
54, -3624.01, -3400.16, -3371.43, -3836.50, 0.000, 0.000, 0.000, 14:20:28.065
55, -3634.62, -3399.40, -3376.34, -3829.70, 0.000, 0.000, 0.000, 14:20:28.121
56, -3635.49, -3420.30, -3392.62, -3853.46, 0.000, 0.000, 0.000, 14:20:28.121
57, -3622.16, -3406.93, -3390.70, -3834.15, 0.000, 0.000, 0.000, 14:20:28.129
58, -3634.66, -3413.89, -3386.66, -3840.85, 0.000, 0.000, 0.000, 14:20:28.129
59, -3629.18, -3409.51, -3378.43, -3831.38, 0.000, 0.000, 0.000, 14:20:28.130
60, -3635.62, -3409.39, -3384.18, -3832.45, 0.000, 0.000, 0.000, 14:20:28.130
61, -3629.25, -3414.99, -3394.96, -3853.31, 0.000, 0.000, 0.000, 14:20:28.146
62, -3640.88, -3433.54, -3390.33, -3854.12, 0.000, 0.000, 0.000, 14:20:28.147
63, -3645.34, -3427.41, -3388.97, -3856.60, 0.000, 0.000, 0.000, 14:20:28.173
64, -3635.27, -3419.88, -3392.02, -3848.51, 0.000, 0.000, 0.000, 14:20:28.173
65, -3647.27, -3432.30, -3411.97, -3842.43, 0.000, 0.000, 0.000, 14:20:28.173
66, -3616.96, -3378.51, -3359.82, -3782.81, 0.000, 0.000, 0.000, 14:20:28.173
67, -3621.90, -3414.16, -3382.82, -3826.93, 0.000, 0.000, 0.000, 14:20:28.173
68, -3661.12, -3453.73, -3415.26, -3886.44, 0.000, 0.000, 0.000, 14:20:28.174
69, -3643.65, -3424.01, -3379.77, -3852.83, 0.000, 0.000, 0.000, 14:20:28.174
70, -3673.81, -3447.47, -3412.38, -3878.13, 0.000, 0.000, 0.000, 14:20:28.174
71, -3650.04, -3436.05, -3392.35, -3867.52, 0.000, 0.000, 0.000, 14:20:28.174
72, -3660.63, -3438.72, -3401.77, -3877.13, 0.000, 0.000, 0.000, 14:20:28.174
73, -3651.54, -3428.02, -3399.38, -3856.91, 0.000, 0.000, 0.000, 14:20:28.174
74, -3638.88, -3418.32, -3382.71, -3852.91, 0.000, 0.000, 0.000, 14:20:28.174
75, -3630.07, -3428.34, -3379.28, -3858.82, 0.000, 0.000, 0.000, 14:20:28.174
76, -3609.36, -3413.75, -3384.50, -3819.63, 0.000, 0.000, 0.000, 14:20:28.174
77, -3695.85, -3475.32, -3438.90, -3900.51, 0.000, 0.000, 0.000, 14:20:28.175
78, -3686.11, -3458.41, -3430.65, -3875.81, 0.000, 0.000, 0.000, 14:20:28.175
79, -3687.17, -3462.64, -3428.19, -3894.80, 0.000, 0.000, 0.000, 14:20:28.175
80, -3687.47, -3472.31, -3436.23, -3877.26, 0.000, 0.000, 0.000, 14:20:28.175
81, -3680.73, -3476.72, -3433.66, -3897.43, 0.000, 0.000, 0.000, 14:20:28.175
82, -3667.31, -3460.00, -3414.60, -3865.23, 0.000, 0.000, 0.000, 14:20:28.175
83, -3660.06, -3469.51, -3419.12, -3878.69, 0.000, 0.000, 0.000, 14:20:28.175
84, -3638.28, -3427.16, -3402.05, -3837.29, 0.000, 0.000, 0.000, 14:20:28.175
85, -3625.13, -3451.37, -3387.64, -3867.80, 0.000, 0.000, 0.000, 14:20:28.176
86, -3735.13, -3473.74, -3469.43, -3871.17, 0.000, 0.000, 0.000, 14:20:28.176
87, -3696.24, -3479.64, -3438.23, -3899.23, 0.000, 0.000, 0.000, 14:20:28.176
88, -3659.44, -3446.23, -3416.31, -3858.68, 0.000, 0.000, 0.000, 14:20:28.176
89, -3633.06, -3443.49, -3390.57, -3876.51, 0.000, 0.000, 0.000, 14:20:28.176
90, -3669.14, -3427.65, -3411.75, -3860.32, 0.000, 0.000, 0.000, 14:20:28.176
91, -3656.01, -3424.82, -3420.22, -3870.43, 0.000, 0.000, 0.000, 14:20:28.176
92, -3655.19, -3428.99, -3395.23, -3839.53, 0.000, 0.000, 0.000, 14:20:28.176
93, -3652.53, -3427.74, -3416.62, -3860.26, 0.000, 0.000, 0.000, 14:20:28.176
94, -3634.02, -3409.07, -3389.85, -3826.11, 0.000, 0.000, 0.000, 14:20:28.177
95, -3616.65, -3405.34, -3364.34, -3835.23, 0.000, 0.000, 0.000, 14:20:28.177
96, -3562.26, -3396.63, -3355.85, -3814.94, 0.000, 0.000, 0.000, 14:20:28.177
97, -3664.38, -3412.10, -3379.83, -3840.82, 0.000, 0.000, 0.000, 14:20:28.177
98, -3633.02, -3396.01, -3392.31, -3819.60, 0.000, 0.000, 0.000, 14:20:28.177
99, -3567.71, -3377.81, -3335.92, -3805.11, 0.000, 0.000, 0.000, 14:20:28.177
100, -3633.40, -3387.18, -3395.11, -3814.27, 0.000, 0.000, 0.000, 14:20:28.177
101, -3581.24, -3365.12, -3362.05, -3812.79, 0.000, 0.000, 0.000, 14:20:28.177
102, -3578.06, -3379.40, -3342.13, -3811.76, 0.000, 0.000, 0.000, 14:20:28.178
103, -3653.91, -3415.47, -3390.36, -3868.63, 0.000, 0.000, 0.000, 14:20:28.178
104, -3621.92, -3390.21, -3368.72, -3830.87, 0.000, 0.000, 0.000, 14:20:28.178
105, -3596.57, -3370.26, -3358.26, -3815.76, 0.000, 0.000, 0.000, 14:20:28.178
106, -3573.79, -3329.73, -3326.16, -3784.34, 0.000, 0.000, 0.000, 14:20:28.178
107, -3525.54, -3317.51, -3281.64, -3770.73, 0.000, 0.000, 0.000, 14:20:28.178
108, -3562.02, -3303.91, -3325.75, -3761.70, 0.000, 0.000, 0.000, 14:20:28.178
109, -3524.32, -3279.31, -3267.47, -3729.54, 0.000, 0.000, 0.000, 14:20:28.178
110, -3487.18, -3277.77, -3270.22, -3736.61, 0.000, 0.000, 0.000, 14:20:28.179
111, -3543.80, -3301.81, -3280.26, -3738.04, 0.000, 0.000, 0.000, 14:20:28.179
112, -3573.85, -3311.12, -3306.58, -3775.98, 0.000, 0.000, 0.000, 14:20:28.179
113, -3565.35, -3336.57, -3315.85, -3779.87, 0.000, 0.000, 0.000, 14:20:28.179
114, -3552.35, -3328.83, -3309.27, -3786.88, 0.000, 0.000, 0.000, 14:20:28.179
115, -3544.69, -3303.62, -3306.28, -3759.81, 0.000, 0.000, 0.000, 14:20:28.179
116, -3535.45, -3325.92, -3303.90, -3779.64, 0.000, 0.000, 0.000, 14:20:28.179
117, -3517.06, -3325.06, -3310.61, -3774.18, 0.000, 0.000, 0.000, 14:20:28.179
118, -3569.28, -3311.55, -3320.28, -3741.35, 0.000, 0.000, 0.000, 14:20:28.179
119, -3596.82, -3374.04, -3351.40, -3808.85, 0.000, 0.000, 0.000, 14:20:28.180
120, -3589.37, -3363.24, -3348.61, -3798.95, 0.000, 0.000, 0.000, 14:20:28.180
121, -3586.11, -3357.17, -3341.55, -3797.80, 0.000, 0.000, 0.000, 14:20:28.180
122, -3599.92, -3374.79, -3348.71, -3810.98, 0.000, 0.000, 0.000, 14:20:28.180
123, -3601.92, -3372.42, -3342.34, -3813.46, 0.000, 0.000, 0.000, 14:20:28.180
124, -3615.19, -3387.21, -3379.11, -3813.51, 0.000, 0.000, 0.000, 14:20:28.180
125, -3623.27, -3398.79, -3371.33, -3832.23, 0.000, 0.000, 0.000, 14:20:28.181
126, -3620.03, -3398.21, -3363.91, -3828.73, 0.000, 0.000, 0.000, 14:20:28.181
127, -3638.82, -3405.68, -3381.12, -3819.04, 0.000, 0.000, 0.000, 14:20:28.228
128, -3644.76, -3420.76, -3389.81, -3851.80, 0.000, 0.000, 0.000, 14:20:28.229
129, -3640.48, -3413.44, -3390.80, -3829.64, 0.000, 0.000, 0.000, 14:20:28.245
130, -3631.01, -3416.74, -3402.68, -3832.67, 0.000, 0.000, 0.000, 14:20:28.246
131, -3661.29, -3446.22, -3386.31, -3858.17, 0.000, 0.000, 0.000, 14:20:28.246
132, -3697.53, -3481.53, -3444.86, -3900.67, 0.000, 0.000, 0.000, 14:20:28.246
133, -3711.19, -3497.62, -3441.88, -3908.27, 0.000, 0.000, 0.000, 14:20:28.246
134, -3722.03, -3514.24, -3467.61, -3920.04, 0.000, 0.000, 0.000, 14:20:28.246
135, -3710.15, -3487.41, -3458.25, -3892.65, 0.000, 0.000, 0.000, 14:20:28.246
136, -3698.73, -3477.72, -3454.42, -3888.35, 0.000, 0.000, 0.000, 14:20:28.247
137, -3679.81, -3458.69, -3441.19, -3883.72, 0.000, 0.000, 0.000, 14:20:28.247
138, -3669.75, -3449.83, -3415.75, -3876.73, 0.000, 0.000, 0.000, 14:20:28.247
139, -3633.08, -3424.93, -3394.87, -3848.83, 0.000, 0.000, 0.000, 14:20:28.247
140, -3641.62, -3405.41, -3383.70, -3833.87, 0.000, 0.000, 0.000, 14:20:28.247
141, -3576.77, -3362.52, -3320.20, -3801.43, 0.000, 0.000, 0.000, 14:20:28.265
142, -3579.22, -3341.20, -3336.62, -3788.98, 0.000, 0.000, 0.000, 14:20:28.265
143, -3573.25, -3337.96, -3330.48, -3789.15, 0.000, 0.000, 0.000, 14:20:28.268
144, -3561.82, -3329.47, -3354.88, -3788.55, 0.000, 0.000, 0.000, 14:20:28.269
145, -3539.36, -3314.86, -3304.82, -3768.16, 0.000, 0.000, 0.000, 14:20:28.358
146, -3555.05, -3323.05, -3283.22, -3774.99, 0.000, 0.000, 0.000, 14:20:28.358
147, -3545.29, -3318.22, -3305.52, -3774.37, 0.000, 0.000, 0.000, 14:20:28.397
148, -3551.93, -3312.91, -3315.49, -3764.76, 0.000, 0.000, 0.000, 14:20:28.397
149, -3562.44, -3330.95, -3315.44, -3764.90, 0.000, 0.000, 0.000, 14:20:28.398
150, -3567.42, -3337.05, -3318.23, -3783.58, 0.000, 0.000, 0.000, 14:20:28.398
151, -3565.98, -3338.57, -3333.83, -3794.12, 0.000, 0.000, 0.000, 14:20:28.429
152, -3578.85, -3348.86, -3345.36, -3810.60, 0.000, 0.000, 0.000, 14:20:28.430
153, -3580.45, -3356.83, -3347.92, -3802.32, 0.000, 0.000, 0.000, 14:20:28.432
154, -3598.89, -3363.52, -3350.96, -3805.25, 0.000, 0.000, 0.000, 14:20:28.432
155, -3610.79, -3392.71, -3368.54, -3829.61, 0.000, 0.000, 0.000, 14:20:28.433
156, -3606.91, -3385.05, -3364.01, -3834.66, 0.000, 0.000, 0.000, 14:20:28.433
157, -3615.19, -3392.84, -3358.51, -3831.02, 0.000, 0.000, 0.000, 14:20:28.443
158, -3613.23, -3398.40, -3348.47, -3823.63, 0.000, 0.000, 0.000, 14:20:28.444
159, -3621.46, -3395.62, -3377.18, -3834.29, 0.000, 0.000, 0.000, 14:20:28.444
160, -3624.54, -3395.25, -3375.56, -3832.48, 0.000, 0.000, 0.000, 14:20:28.444
161, -3664.23, -3443.08, -3398.03, -3861.69, 0.000, 0.000, 0.000, 14:20:28.445
162, -3651.60, -3439.81, -3409.80, -3849.89, 0.000, 0.000, 0.000, 14:20:28.445
163, -3634.76, -3430.73, -3394.61, -3853.91, 0.000, 0.000, 0.000, 14:20:28.488
164, -3654.11, -3446.50, -3402.99, -3869.02, 0.000, 0.000, 0.000, 14:20:28.488
165, -3640.73, -3427.98, -3385.23, -3841.63, 0.000, 0.000, 0.000, 14:20:28.489
166, -3632.15, -3403.50, -3382.79, -3840.58, 0.000, 0.000, 0.000, 14:20:28.490
167, -3636.95, -3407.47, -3392.25, -3850.12, 0.000, 0.000, 0.000, 14:20:28.491
168, -3631.38, -3408.53, -3380.23, -3850.22, 0.000, 0.000, 0.000, 14:20:28.491
169, -3617.11, -3401.06, -3372.40, -3834.64, 0.000, 0.000, 0.000, 14:20:28.492
170, -3636.50, -3419.03, -3366.56, -3838.04, 0.000, 0.000, 0.000, 14:20:28.492
171, -3613.29, -3404.95, -3368.70, -3837.56, 0.000, 0.000, 0.000, 14:20:28.493
172, -3640.52, -3408.43, -3397.95, -3837.72, 0.000, 0.000, 0.000, 14:20:28.493
173, -3631.27, -3411.71, -3381.47, -3841.97, 0.000, 0.000, 0.000, 14:20:28.494
174, -3604.73, -3392.94, -3363.62, -3815.93, 0.000, 0.000, 0.000, 14:20:28.494
175, -3610.72, -3391.12, -3365.50, -3815.33, 0.000, 0.000, 0.000, 14:20:28.495
176, -3627.99, -3404.59, -3363.07, -3846.58, 0.000, 0.000, 0.000, 14:20:28.495
177, -3624.73, -3399.89, -3379.97, -3832.48, 0.000, 0.000, 0.000, 14:20:28.495
178, -3622.24, -3405.69, -3372.35, -3833.11, 0.000, 0.000, 0.000, 14:20:28.495
179, -3624.35, -3403.59, -3371.14, -3843.43, 0.000, 0.000, 0.000, 14:20:28.496
180, -3623.22, -3399.89, -3388.79, -3839.16, 0.000, 0.000, 0.000, 14:20:28.496
181, -3624.47, -3399.93, -3382.11, -3838.89, 0.000, 0.000, 0.000, 14:20:28.497
182, -3633.61, -3412.00, -3369.18, -3848.92, 0.000, 0.000, 0.000, 14:20:28.497
183, -3615.05, -3398.12, -3381.83, -3842.06, 0.000, 0.000, 0.000, 14:20:28.498
184, -3623.43, -3402.80, -3378.15, -3829.59, 0.000, 0.000, 0.000, 14:20:28.498
185, -3624.77, -3402.39, -3393.38, -3828.83, 0.000, 0.000, 0.000, 14:20:28.499
186, -3621.00, -3398.18, -3368.32, -3850.87, 0.000, 0.000, 0.000, 14:20:28.499
187, -3634.89, -3404.00, -3389.44, -3849.62, 0.000, 0.000, 0.000, 14:20:28.500
188, -3636.37, -3408.65, -3399.02, -3849.07, 0.000, 0.000, 0.000, 14:20:28.500
189, -3636.47, -3417.94, -3384.09, -3854.46, 0.000, 0.000, 0.000, 14:20:28.500
190, -3630.28, -3411.30, -3383.25, -3846.72, 0.000, 0.000, 0.000, 14:20:28.501
191, -3634.01, -3430.06, -3395.98, -3863.24, 0.000, 0.000, 0.000, 14:20:28.518
192, -3619.58, -3412.50, -3366.60, -3844.05, 0.000, 0.000, 0.000, 14:20:28.519
193, -3628.15, -3416.36, -3374.84, -3834.47, 0.000, 0.000, 0.000, 14:20:28.520
194, -3654.79, -3437.28, -3396.24, -3843.89, 0.000, 0.000, 0.000, 14:20:28.520
195, -3643.73, -3427.98, -3389.62, -3852.90, 0.000, 0.000, 0.000, 14:20:28.558
196, -3642.37, -3428.55, -3363.02, -3841.39, 0.000, 0.000, 0.000, 14:20:28.558
197, -3653.35, -3444.12, -3384.65, -3859.89, 0.000, 0.000, 0.000, 14:20:28.559
198, -3652.11, -3435.18, -3391.95, -3845.16, 0.000, 0.000, 0.000, 14:20:28.559
199, -3656.12, -3427.99, -3401.89, -3853.96, 0.000, 0.000, 0.000, 14:20:28.560
200, -3649.98, -3434.20, -3404.59, -3850.61, 0.000, 0.000, 0.000, 14:20:28.560
0, -3645.30, -3424.07, -3394.59, -3847.47, 0.000, 0.000, 0.000, 14:20:28.560
1, -3636.19, -3413.86, -3380.46, -3833.75, 0.000, 0.000, 0.000, 14:20:28.561
2, -3656.97, -3435.37, -3411.76, -3843.67, 0.000, 0.000, 0.000, 14:20:28.561
3, -3654.04, -3431.55, -3413.95, -3847.26, 0.000, 0.000, 0.000, 14:20:28.575
4, -3640.55, -3417.80, -3383.89, -3850.57, 0.000, 0.000, 0.000, 14:20:28.576
5, -3635.40, -3411.48, -3386.90, -3831.05, 0.000, 0.000, 0.000, 14:20:28.576
6, -3631.92, -3401.40, -3385.02, -3858.40, 0.000, 0.000, 0.000, 14:20:28.576
7, -3617.99, -3400.15, -3372.07, -3836.45, 0.000, 0.000, 0.000, 14:20:28.595
8, -3627.52, -3408.93, -3374.84, -3837.02, 0.000, 0.000, 0.000, 14:20:28.596
9, -3625.10, -3404.00, -3386.17, -3828.86, 0.000, 0.000, 0.000, 14:20:28.606
10, -3633.64, -3415.81, -3386.48, -3850.75, 0.000, 0.000, 0.000, 14:20:28.606
11, -3638.88, -3425.36, -3387.83, -3850.88, 0.000, 0.000, 0.000, 14:20:28.606
12, -3641.06, -3421.04, -3388.93, -3841.96, 0.000, 0.000, 0.000, 14:20:28.606
13, -3637.48, -3431.09, -3386.23, -3843.76, 0.000, 0.000, 0.000, 14:20:28.640
14, -3638.87, -3434.75, -3401.25, -3850.21, 0.000, 0.000, 0.000, 14:20:28.641
15, -3649.87, -3433.88, -3390.04, -3856.63, 0.000, 0.000, 0.000, 14:20:28.658
16, -3655.87, -3440.75, -3414.36, -3857.94, 0.000, 0.000, 0.000, 14:20:28.659
17, -3657.44, -3443.24, -3418.38, -3865.41, 0.000, 0.000, 0.000, 14:20:28.659
18, -3655.78, -3440.01, -3406.61, -3858.97, 0.000, 0.000, 0.000, 14:20:28.659
19, -3680.32, -3447.26, -3423.73, -3876.21, 0.000, 0.000, 0.000, 14:20:28.660
20, -3663.98, -3452.78, -3433.36, -3875.81, 0.000, 0.000, 0.000, 14:20:28.660
21, -3671.01, -3455.26, -3428.92, -3872.62, 0.000, 0.000, 0.000, 14:20:28.668
22, -3668.90, -3443.91, -3427.28, -3874.50, 0.000, 0.000, 0.000, 14:20:28.669
23, -3691.90, -3473.16, -3436.20, -3896.25, 0.000, 0.000, 0.000, 14:20:28.669
24, -3682.59, -3476.08, -3422.26, -3902.20, 0.000, 0.000, 0.000, 14:20:28.669
25, -3674.07, -3461.67, -3427.72, -3870.27, 0.000, 0.000, 0.000, 14:20:28.683
26, -3670.85, -3456.93, -3424.80, -3875.13, 0.000, 0.000, 0.000, 14:20:28.683
27, -3677.48, -3457.07, -3428.81, -3878.13, 0.000, 0.000, 0.000, 14:20:28.699
28, -3671.22, -3453.34, -3421.71, -3882.46, 0.000, 0.000, 0.000, 14:20:28.699
29, -3671.03, -3456.60, -3424.24, -3873.49, 0.000, 0.000, 0.000, 14:20:28.700
30, -3667.68, -3445.97, -3422.34, -3874.11, 0.000, 0.000, 0.000, 14:20:28.700
31, -3650.48, -3430.07, -3415.55, -3860.64, 0.000, 0.000, 0.000, 14:20:28.713
32, -3668.07, -3450.22, -3431.95, -3860.22, 0.000, 0.000, 0.000, 14:20:28.714
33, -3662.02, -3440.93, -3396.77, -3864.18, 0.000, 0.000, 0.000, 14:20:28.732
34, -3654.15, -3430.37, -3404.29, -3855.79, 0.000, 0.000, 0.000, 14:20:28.732
35, -3651.58, -3427.96, -3393.42, -3854.65, 0.000, 0.000, 0.000, 14:20:28.736
36, -3634.57, -3411.13, -3390.02, -3852.69, 0.000, 0.000, 0.000, 14:20:28.736
37, -3623.19, -3399.03, -3370.35, -3830.92, 0.000, 0.000, 0.000, 14:20:28.756
38, -3636.93, -3411.76, -3393.92, -3857.04, 0.000, 0.000, 0.000, 14:20:28.756
39, -3631.50, -3398.53, -3391.73, -3830.00, 0.000, 0.000, 0.000, 14:20:28.765
40, -3613.03, -3393.64, -3360.63, -3837.90, 0.000, 0.000, 0.000, 14:20:28.765
41, -3612.46, -3396.81, -3379.58, -3836.82, 0.000, 0.000, 0.000, 14:20:28.765
42, -3625.03, -3389.91, -3377.62, -3825.03, 0.000, 0.000, 0.000, 14:20:28.765
43, -3617.02, -3385.89, -3376.92, -3828.84, 0.000, 0.000, 0.000, 14:20:28.770
44, -3639.87, -3412.14, -3397.56, -3840.07, 0.000, 0.000, 0.000, 14:20:28.770
45, -3643.24, -3410.26, -3394.59, -3848.83, 0.000, 0.000, 0.000, 14:20:28.790
46, -3642.09, -3415.85, -3377.56, -3849.25, 0.000, 0.000, 0.000, 14:20:28.790
47, -3651.50, -3433.13, -3402.35, -3865.08, 0.000, 0.000, 0.000, 14:20:28.791
48, -3641.75, -3419.33, -3392.20, -3855.29, 0.000, 0.000, 0.000, 14:20:28.791
49, -3639.27, -3420.46, -3392.04, -3852.83, 0.000, 0.000, 0.000, 14:20:28.800
50, -3661.76, -3444.47, -3422.64, -3865.02, 0.000, 0.000, 0.000, 14:20:28.801
51, -3682.01, -3451.29, -3418.43, -3872.72, 0.000, 0.000, 0.000, 14:20:28.816
52, -3667.03, -3451.56, -3407.12, -3868.40, 0.000, 0.000, 0.000, 14:20:28.816
53, -3658.93, -3441.84, -3419.15, -3866.33, 0.000, 0.000, 0.000, 14:20:28.816
54, -3658.41, -3440.87, -3405.36, -3871.51, 0.000, 0.000, 0.000, 14:20:28.816
55, -3670.77, -3446.48, -3410.18, -3872.21, 0.000, 0.000, 0.000, 14:20:28.830
56, -3680.52, -3468.82, -3417.08, -3883.44, 0.000, 0.000, 0.000, 14:20:28.831
57, -3677.46, -3462.23, -3421.63, -3880.93, 0.000, 0.000, 0.000, 14:20:28.863
58, -3673.77, -3457.43, -3408.37, -3870.42, 0.000, 0.000, 0.000, 14:20:28.864
59, -3666.94, -3456.01, -3431.02, -3873.33, 0.000, 0.000, 0.000, 14:20:28.864
60, -3657.25, -3451.18, -3413.72, -3869.97, 0.000, 0.000, 0.000, 14:20:28.869
61, -3653.65, -3439.67, -3415.51, -3858.62, 0.000, 0.000, 0.000, 14:20:28.870
62, -3667.42, -3455.01, -3420.81, -3875.14, 0.000, 0.000, 0.000, 14:20:28.870
63, -3649.90, -3433.69, -3420.45, -3857.55, 0.000, 0.000, 0.000, 14:20:28.879
64, -3634.19, -3414.25, -3391.95, -3840.97, 0.000, 0.000, 0.000, 14:20:28.879
65, -3649.13, -3433.11, -3400.22, -3862.33, 0.000, 0.000, 0.000, 14:20:28.892
66, -3642.11, -3423.92, -3403.01, -3863.77, 0.000, 0.000, 0.000, 14:20:28.892
67, -3636.93, -3416.96, -3403.41, -3872.39, 0.000, 0.000, 0.000, 14:20:28.892
68, -3645.29, -3410.52, -3402.01, -3846.17, 0.000, 0.000, 0.000, 14:20:28.892
69, -3637.67, -3409.66, -3400.91, -3846.83, 0.000, 0.000, 0.000, 14:20:28.910
70, -3640.53, -3417.74, -3392.62, -3839.24, 0.000, 0.000, 0.000, 14:20:28.910
71, -3655.19, -3427.38, -3398.62, -3857.40, 0.000, 0.000, 0.000, 14:20:28.910
72, -3651.47, -3427.70, -3385.04, -3849.96, 0.000, 0.000, 0.000, 14:20:28.910
73, -3641.03, -3425.10, -3391.43, -3856.66, 0.000, 0.000, 0.000, 14:20:28.920
74, -3654.08, -3441.49, -3397.92, -3860.92, 0.000, 0.000, 0.000, 14:20:28.921
75, -3659.36, -3438.41, -3396.67, -3846.44, 0.000, 0.000, 0.000, 14:20:28.940
76, -3634.43, -3419.58, -3398.09, -3855.96, 0.000, 0.000, 0.000, 14:20:28.940
77, -3652.16, -3436.73, -3409.97, -3856.00, 0.000, 0.000, 0.000, 14:20:28.940
78, -3648.60, -3434.55, -3395.19, -3867.02, 0.000, 0.000, 0.000, 14:20:28.941
79, -3649.81, -3438.10, -3402.85, -3858.68, 0.000, 0.000, 0.000, 14:20:28.950
80, -3672.23, -3461.35, -3415.36, -3870.24, 0.000, 0.000, 0.000, 14:20:28.950
81, -3657.77, -3452.94, -3418.67, -3868.29, 0.000, 0.000, 0.000, 14:20:28.975
82, -3664.44, -3450.91, -3410.26, -3862.42, 0.000, 0.000, 0.000, 14:20:28.976
83, -3670.93, -3465.31, -3427.45, -3875.96, 0.000, 0.000, 0.000, 14:20:28.976
84, -3675.58, -3462.55, -3403.35, -3864.17, 0.000, 0.000, 0.000, 14:20:28.976
85, -3662.38, -3449.06, -3382.37, -3863.34, 0.000, 0.000, 0.000, 14:20:28.996
86, -3665.92, -3459.57, -3399.32, -3868.45, 0.000, 0.000, 0.000, 14:20:28.996
87, -3657.72, -3442.89, -3422.39, -3854.31, 0.000, 0.000, 0.000, 14:20:28.996
88, -3661.76, -3438.55, -3418.75, -3869.51, 0.000, 0.000, 0.000, 14:20:28.996
89, -3662.57, -3442.35, -3423.83, -3860.16, 0.000, 0.000, 0.000, 14:20:28.996
90, -3648.21, -3426.61, -3387.59, -3855.54, 0.000, 0.000, 0.000, 14:20:28.996
91, -3647.75, -3421.34, -3404.15, -3867.56, 0.000, 0.000, 0.000, 14:20:29.010
92, -3657.97, -3432.81, -3422.62, -3861.58, 0.000, 0.000, 0.000, 14:20:29.011
93, -3660.59, -3436.74, -3435.15, -3868.34, 0.000, 0.000, 0.000, 14:20:29.025
94, -3658.90, -3427.12, -3414.13, -3861.45, 0.000, 0.000, 0.000, 14:20:29.025
95, -3658.39, -3436.95, -3415.26, -3861.98, 0.000, 0.000, 0.000, 14:20:29.026
96, -3655.52, -3432.98, -3427.16, -3864.41, 0.000, 0.000, 0.000, 14:20:29.026
97, -3643.99, -3427.14, -3404.19, -3855.47, 0.000, 0.000, 0.000, 14:20:29.042
98, -3657.68, -3434.08, -3411.22, -3866.17, 0.000, 0.000, 0.000, 14:20:29.042
99, -3653.20, -3432.49, -3419.65, -3877.39, 0.000, 0.000, 0.000, 14:20:29.056
100, -3656.55, -3429.51, -3416.35, -3864.34, 0.000, 0.000, 0.000, 14:20:29.057
101, -3652.73, -3431.06, -3410.34, -3851.39, 0.000, 0.000, 0.000, 14:20:29.058
102, -3649.61, -3432.07, -3405.60, -3855.82, 0.000, 0.000, 0.000, 14:20:29.058
103, -3656.02, -3438.01, -3411.46, -3876.57, 0.000, 0.000, 0.000, 14:20:29.077
104, -3677.14, -3454.80, -3419.93, -3877.67, 0.000, 0.000, 0.000, 14:20:29.077
105, -3661.70, -3442.83, -3417.93, -3878.50, 0.000, 0.000, 0.000, 14:20:29.109
106, -3653.25, -3438.56, -3412.64, -3864.41, 0.000, 0.000, 0.000, 14:20:29.109
107, -3681.27, -3460.93, -3431.54, -3887.22, 0.000, 0.000, 0.000, 14:20:29.110
108, -3684.36, -3459.41, -3441.39, -3869.72, 0.000, 0.000, 0.000, 14:20:29.110
109, -3671.91, -3453.52, -3442.03, -3879.74, 0.000, 0.000, 0.000, 14:20:29.110
110, -3663.73, -3443.90, -3377.93, -3872.67, 0.000, 0.000, 0.000, 14:20:29.110
111, -3657.91, -3443.41, -3401.24, -3871.67, 0.000, 0.000, 0.000, 14:20:29.111
112, -3658.73, -3451.38, -3396.85, -3871.02, 0.000, 0.000, 0.000, 14:20:29.111
113, -3694.86, -3473.07, -3428.85, -3878.26, 0.000, 0.000, 0.000, 14:20:29.115
114, -3683.16, -3465.12, -3448.00, -3892.51, 0.000, 0.000, 0.000, 14:20:29.115
115, -3677.33, -3449.68, -3436.17, -3882.35, 0.000, 0.000, 0.000, 14:20:29.130
116, -3676.21, -3453.28, -3439.30, -3883.24, 0.000, 0.000, 0.000, 14:20:29.131
117, -3662.44, -3442.61, -3415.76, -3866.92, 0.000, 0.000, 0.000, 14:20:29.145
118, -3654.37, -3444.93, -3418.33, -3869.90, 0.000, 0.000, 0.000, 14:20:29.145
119, -3663.40, -3454.08, -3420.22, -3889.21, 0.000, 0.000, 0.000, 14:20:29.146
120, -3669.99, -3447.26, -3416.29, -3884.79, 0.000, 0.000, 0.000, 14:20:29.146
121, -3659.60, -3444.97, -3425.58, -3864.23, 0.000, 0.000, 0.000, 14:20:29.177
122, -3693.97, -3473.49, -3427.14, -3886.06, 0.000, 0.000, 0.000, 14:20:29.177
123, -3691.92, -3472.12, -3415.19, -3884.76, 0.000, 0.000, 0.000, 14:20:29.177
124, -3685.17, -3466.08, -3437.96, -3879.60, 0.000, 0.000, 0.000, 14:20:29.177
125, -3688.02, -3460.07, -3445.77, -3882.58, 0.000, 0.000, 0.000, 14:20:29.183
126, -3677.46, -3460.31, -3428.57, -3862.05, 0.000, 0.000, 0.000, 14:20:29.183
127, -3690.16, -3472.51, -3441.79, -3880.04, 0.000, 0.000, 0.000, 14:20:29.191
128, -3700.23, -3489.87, -3432.04, -3896.94, 0.000, 0.000, 0.000, 14:20:29.191
129, -3705.48, -3485.78, -3462.61, -3908.77, 0.000, 0.000, 0.000, 14:20:29.213
130, -3697.47, -3475.07, -3450.88, -3909.14, 0.000, 0.000, 0.000, 14:20:29.214
131, -3698.72, -3483.89, -3452.16, -3901.40, 0.000, 0.000, 0.000, 14:20:29.214
132, -3704.07, -3478.62, -3452.85, -3904.50, 0.000, 0.000, 0.000, 14:20:29.214
133, -3681.02, -3467.92, -3444.39, -3893.50, 0.000, 0.000, 0.000, 14:20:29.223
134, -3684.76, -3462.48, -3433.46, -3887.06, 0.000, 0.000, 0.000, 14:20:29.223
135, -3688.58, -3469.67, -3460.26, -3894.03, 0.000, 0.000, 0.000, 14:20:29.236
136, -3685.53, -3469.19, -3434.84, -3891.70, 0.000, 0.000, 0.000, 14:20:29.237
137, -3697.07, -3474.83, -3415.04, -3897.26, 0.000, 0.000, 0.000, 14:20:29.237
138, -3675.09, -3458.52, -3438.48, -3873.83, 0.000, 0.000, 0.000, 14:20:29.252
139, -3674.65, -3458.58, -3419.40, -3867.83, 0.000, 0.000, 0.000, 14:20:29.296
140, -3693.53, -3462.53, -3444.54, -3888.59, 0.000, 0.000, 0.000, 14:20:29.297
141, -3680.96, -3456.32, -3395.35, -3871.47, 0.000, 0.000, 0.000, 14:20:29.332
142, -3674.82, -3465.93, -3417.77, -3880.30, 0.000, 0.000, 0.000, 14:20:29.333
143, -3664.08, -3465.31, -3416.89, -3888.20, 0.000, 0.000, 0.000, 14:20:29.347
144, -3660.54, -3443.15, -3411.12, -3876.50, 0.000, 0.000, 0.000, 14:20:29.348
145, -3661.57, -3448.34, -3413.09, -3870.47, 0.000, 0.000, 0.000, 14:20:29.348
146, -3682.63, -3466.36, -3429.94, -3867.30, 0.000, 0.000, 0.000, 14:20:29.348
147, -3689.72, -3467.35, -3439.98, -3887.73, 0.000, 0.000, 0.000, 14:20:29.368
148, -3690.02, -3459.50, -3456.59, -3871.20, 0.000, 0.000, 0.000, 14:20:29.368
149, -3685.09, -3465.12, -3425.69, -3871.36, 0.000, 0.000, 0.000, 14:20:29.369
150, -3677.41, -3457.04, -3424.51, -3886.34, 0.000, 0.000, 0.000, 14:20:29.369
151, -3677.72, -3459.79, -3423.57, -3879.82, 0.000, 0.000, 0.000, 14:20:29.369
152, -3683.52, -3473.14, -3441.33, -3891.61, 0.000, 0.000, 0.000, 14:20:29.370
153, -3677.85, -3463.46, -3411.94, -3881.41, 0.000, 0.000, 0.000, 14:20:29.370
154, -3679.23, -3468.40, -3440.63, -3879.32, 0.000, 0.000, 0.000, 14:20:29.370
155, -3700.25, -3481.37, -3461.44, -3898.10, 0.000, 0.000, 0.000, 14:20:29.371
156, -3691.65, -3473.07, -3435.14, -3900.94, 0.000, 0.000, 0.000, 14:20:29.371
157, -3689.40, -3469.83, -3430.53, -3879.91, 0.000, 0.000, 0.000, 14:20:29.371
158, -3682.49, -3465.92, -3423.51, -3884.59, 0.000, 0.000, 0.000, 14:20:29.371
159, -3676.52, -3464.67, -3432.87, -3877.43, 0.000, 0.000, 0.000, 14:20:29.372
160, -3670.68, -3463.71, -3425.91, -3876.42, 0.000, 0.000, 0.000, 14:20:29.372
161, -3684.23, -3482.68, -3437.92, -3889.64, 0.000, 0.000, 0.000, 14:20:29.372
162, -3681.07, -3470.36, -3437.63, -3882.51, 0.000, 0.000, 0.000, 14:20:29.373
163, -3684.66, -3470.04, -3429.07, -3894.19, 0.000, 0.000, 0.000, 14:20:29.373
164, -3700.98, -3479.44, -3442.23, -3902.34, 0.000, 0.000, 0.000, 14:20:29.373
165, -3688.07, -3464.39, -3448.57, -3883.75, 0.000, 0.000, 0.000, 14:20:29.392
166, -3670.98, -3467.49, -3432.74, -3889.67, 0.000, 0.000, 0.000, 14:20:29.392
167, -3696.99, -3477.71, -3460.40, -3902.11, 0.000, 0.000, 0.000, 14:20:29.392
168, -3685.73, -3463.78, -3453.89, -3885.63, 0.000, 0.000, 0.000, 14:20:29.393
169, -3688.02, -3466.49, -3433.53, -3888.42, 0.000, 0.000, 0.000, 14:20:29.416
170, -3702.55, -3486.57, -3447.76, -3891.97, 0.000, 0.000, 0.000, 14:20:29.416
171, -3702.98, -3471.42, -3445.96, -3889.34, 0.000, 0.000, 0.000, 14:20:29.418
172, -3698.66, -3474.35, -3453.39, -3902.89, 0.000, 0.000, 0.000, 14:20:29.418
173, -3693.30, -3480.34, -3447.39, -3895.66, 0.000, 0.000, 0.000, 14:20:29.419
174, -3689.54, -3471.69, -3439.82, -3900.82, 0.000, 0.000, 0.000, 14:20:29.419
175, -3692.59, -3466.58, -3425.66, -3886.09, 0.000, 0.000, 0.000, 14:20:29.458
176, -3710.04, -3486.35, -3453.55, -3905.62, 0.000, 0.000, 0.000, 14:20:29.458
177, -3711.39, -3490.72, -3443.12, -3898.60, 0.000, 0.000, 0.000, 14:20:29.458
178, -3706.65, -3489.20, -3450.27, -3914.61, 0.000, 0.000, 0.000, 14:20:29.459
179, -3711.40, -3483.51, -3448.67, -3906.82, 0.000, 0.000, 0.000, 14:20:29.459
180, -3698.28, -3484.03, -3435.27, -3900.78, 0.000, 0.000, 0.000, 14:20:29.459
181, -3687.81, -3475.92, -3420.42, -3891.14, 0.000, 0.000, 0.000, 14:20:29.468
182, -3706.35, -3491.63, -3466.35, -3901.50, 0.000, 0.000, 0.000, 14:20:29.468
183, -3701.94, -3486.67, -3436.49, -3897.10, 0.000, 0.000, 0.000, 14:20:29.476
184, -3694.30, -3470.36, -3442.35, -3880.68, 0.000, 0.000, 0.000, 14:20:29.476
185, -3691.97, -3464.32, -3449.00, -3878.39, 0.000, 0.000, 0.000, 14:20:29.476
186, -3678.02, -3453.44, -3426.60, -3888.38, 0.000, 0.000, 0.000, 14:20:29.476
187, -3680.75, -3461.02, -3443.44, -3880.10, 0.000, 0.000, 0.000, 14:20:29.493
188, -3675.66, -3466.78, -3449.12, -3881.22, 0.000, 0.000, 0.000, 14:20:29.493
189, -3666.99, -3446.59, -3400.74, -3868.44, 0.000, 0.000, 0.000, 14:20:29.506
190, -3671.75, -3447.31, -3410.34, -3863.84, 0.000, 0.000, 0.000, 14:20:29.506
191, -3659.42, -3452.42, -3426.03, -3873.04, 0.000, 0.000, 0.000, 14:20:29.506
192, -3667.30, -3445.98, -3429.53, -3872.14, 0.000, 0.000, 0.000, 14:20:29.506
193, -3661.08, -3437.98, -3428.20, -3881.42, 0.000, 0.000, 0.000, 14:20:29.524
194, -3673.03, -3452.60, -3441.57, -3888.86, 0.000, 0.000, 0.000, 14:20:29.524
195, -3670.35, -3452.22, -3430.51, -3897.01, 0.000, 0.000, 0.000, 14:20:29.537
196, -3672.86, -3443.83, -3409.11, -3881.05, 0.000, 0.000, 0.000, 14:20:29.537
197, -3660.24, -3445.64, -3410.27, -3863.96, 0.000, 0.000, 0.000, 14:20:29.550
198, -3656.61, -3445.47, -3413.54, -3875.46, 0.000, 0.000, 0.000, 14:20:29.552
199, -3652.38, -3442.10, -3407.58, -3867.27, 0.000, 0.000, 0.000, 14:20:29.553
200, -3677.80, -3458.41, -3426.38, -3879.80, 0.000, 0.000, 0.000, 14:20:29.553
0, -3673.60, -3457.52, -3419.21, -3878.50, 0.000, 0.000, 0.000, 14:20:29.565
1, -3676.55, -3449.74, -3409.09, -3873.15, 0.000, 0.000, 0.000, 14:20:29.566
2, -3678.42, -3467.15, -3435.49, -3878.17, 0.000, 0.000, 0.000, 14:20:29.566
3, -3678.26, -3459.92, -3423.88, -3885.69, 0.000, 0.000, 0.000, 14:20:29.583
4, -3684.15, -3455.02, -3433.15, -3867.09, 0.000, 0.000, 0.000, 14:20:29.584
5, -3688.76, -3471.89, -3441.34, -3894.65, 0.000, 0.000, 0.000, 14:20:29.588
6, -3693.85, -3472.90, -3440.13, -3887.13, 0.000, 0.000, 0.000, 14:20:29.589
7, -3687.95, -3467.79, -3428.38, -3897.31, 0.000, 0.000, 0.000, 14:20:29.602
8, -3691.28, -3474.51, -3439.26, -3892.12, 0.000, 0.000, 0.000, 14:20:29.602
9, -3676.25, -3464.40, -3445.11, -3884.65, 0.000, 0.000, 0.000, 14:20:29.625
10, -3671.45, -3441.78, -3414.89, -3871.30, 0.000, 0.000, 0.000, 14:20:29.625
11, -3678.43, -3455.00, -3427.85, -3867.13, 0.000, 0.000, 0.000, 14:20:29.626
12, -3668.16, -3447.55, -3411.48, -3884.18, 0.000, 0.000, 0.000, 14:20:29.626
13, -3672.91, -3449.64, -3413.44, -3882.96, 0.000, 0.000, 0.000, 14:20:29.626
14, -3680.74, -3465.78, -3430.36, -3891.17, 0.000, 0.000, 0.000, 14:20:29.626
15, -3675.36, -3460.50, -3423.93, -3890.06, 0.000, 0.000, 0.000, 14:20:29.627
16, -3655.62, -3436.72, -3414.01, -3849.08, 0.000, 0.000, 0.000, 14:20:29.627
17, -3681.24, -3462.46, -3431.79, -3866.75, 0.000, 0.000, 0.000, 14:20:29.655
18, -3672.45, -3456.52, -3429.03, -3874.93, 0.000, 0.000, 0.000, 14:20:29.655
19, -3665.92, -3440.33, -3409.76, -3879.92, 0.000, 0.000, 0.000, 14:20:29.656
20, -3668.38, -3448.83, -3417.90, -3876.24, 0.000, 0.000, 0.000, 14:20:29.656
21, -3663.74, -3441.50, -3407.00, -3872.98, 0.000, 0.000, 0.000, 14:20:29.670
22, -3667.73, -3436.65, -3414.09, -3869.41, 0.000, 0.000, 0.000, 14:20:29.671
23, -3679.50, -3449.66, -3421.66, -3862.18, 0.000, 0.000, 0.000, 14:20:29.671
24, -3668.79, -3438.97, -3427.51, -3864.17, 0.000, 0.000, 0.000, 14:20:29.671
25, -3665.37, -3436.09, -3409.06, -3856.47, 0.000, 0.000, 0.000, 14:20:29.688
26, -3671.33, -3453.82, -3420.76, -3877.88, 0.000, 0.000, 0.000, 14:20:29.689
27, -3670.36, -3443.88, -3407.00, -3863.54, 0.000, 0.000, 0.000, 14:20:29.701
28, -3667.13, -3441.27, -3414.50, -3868.31, 0.000, 0.000, 0.000, 14:20:29.701
29, -3672.65, -3443.68, -3401.76, -3873.13, 0.000, 0.000, 0.000, 14:20:29.701
30, -3655.94, -3440.49, -3418.74, -3874.15, 0.000, 0.000, 0.000, 14:20:29.701
31, -3657.17, -3439.72, -3397.58, -3868.42, 0.000, 0.000, 0.000, 14:20:29.733
32, -3662.74, -3440.60, -3416.39, -3869.25, 0.000, 0.000, 0.000, 14:20:29.733
33, -3666.78, -3448.71, -3400.91, -3863.10, 0.000, 0.000, 0.000, 14:20:29.733
34, -3663.07, -3445.64, -3408.61, -3872.60, 0.000, 0.000, 0.000, 14:20:29.733
35, -3669.44, -3444.98, -3395.48, -3885.89, 0.000, 0.000, 0.000, 14:20:29.733
36, -3653.00, -3430.33, -3387.99, -3861.75, 0.000, 0.000, 0.000, 14:20:29.734
37, -3645.91, -3426.05, -3383.93, -3859.03, 0.000, 0.000, 0.000, 14:20:29.767
38, -3661.36, -3445.79, -3390.72, -3866.94, 0.000, 0.000, 0.000, 14:20:29.767
39, -3657.40, -3434.47, -3407.48, -3877.80, 0.000, 0.000, 0.000, 14:20:29.768
40, -3660.30, -3435.98, -3397.79, -3860.54, 0.000, 0.000, 0.000, 14:20:29.768
41, -3656.55, -3434.08, -3405.30, -3859.51, 0.000, 0.000, 0.000, 14:20:29.768
42, -3660.07, -3429.92, -3411.64, -3854.70, 0.000, 0.000, 0.000, 14:20:29.768
43, -3649.88, -3422.53, -3403.39, -3842.49, 0.000, 0.000, 0.000, 14:20:29.775
44, -3665.75, -3432.98, -3415.58, -3855.06, 0.000, 0.000, 0.000, 14:20:29.775
45, -3660.65, -3435.62, -3405.92, -3854.64, 0.000, 0.000, 0.000, 14:20:29.790
46, -3661.27, -3434.57, -3404.23, -3849.56, 0.000, 0.000, 0.000, 14:20:29.790
47, -3656.13, -3426.13, -3408.23, -3860.71, 0.000, 0.000, 0.000, 14:20:29.791
48, -3646.40, -3416.13, -3409.47, -3844.55, 0.000, 0.000, 0.000, 14:20:29.791
49, -3657.44, -3417.87, -3405.68, -3845.83, 0.000, 0.000, 0.000, 14:20:29.805
50, -3666.89, -3439.16, -3431.03, -3874.15, 0.000, 0.000, 0.000, 14:20:29.805
51, -3657.36, -3436.31, -3415.54, -3863.69, 0.000, 0.000, 0.000, 14:20:29.821
52, -3649.98, -3430.44, -3400.33, -3859.43, 0.000, 0.000, 0.000, 14:20:29.821
53, -3657.70, -3438.35, -3413.86, -3855.81, 0.000, 0.000, 0.000, 14:20:29.821
54, -3658.50, -3435.76, -3404.50, -3858.12, 0.000, 0.000, 0.000, 14:20:29.821
55, -3655.64, -3438.63, -3406.39, -3861.39, 0.000, 0.000, 0.000, 14:20:29.836
56, -3668.56, -3449.77, -3410.14, -3863.90, 0.000, 0.000, 0.000, 14:20:29.836
57, -3660.80, -3437.12, -3421.37, -3877.33, 0.000, 0.000, 0.000, 14:20:29.868
58, -3652.40, -3430.79, -3405.95, -3868.50, 0.000, 0.000, 0.000, 14:20:29.868
59, -3658.16, -3441.38, -3399.17, -3872.42, 0.000, 0.000, 0.000, 14:20:29.869
60, -3645.39, -3435.95, -3406.56, -3860.26, 0.000, 0.000, 0.000, 14:20:29.869
61, -3639.27, -3423.67, -3401.21, -3851.23, 0.000, 0.000, 0.000, 14:20:29.869
62, -3647.02, -3431.26, -3401.52, -3864.47, 0.000, 0.000, 0.000, 14:20:29.870
63, -3642.68, -3421.83, -3412.18, -3858.41, 0.000, 0.000, 0.000, 14:20:29.870
64, -3641.48, -3423.04, -3405.75, -3859.93, 0.000, 0.000, 0.000, 14:20:29.870
65, -3659.72, -3442.66, -3409.38, -3869.45, 0.000, 0.000, 0.000, 14:20:29.880
66, -3654.68, -3439.99, -3420.48, -3867.16, 0.000, 0.000, 0.000, 14:20:29.881
67, -3654.70, -3437.94, -3422.57, -3862.20, 0.000, 0.000, 0.000, 14:20:29.899
68, -3655.81, -3432.20, -3407.12, -3853.81, 0.000, 0.000, 0.000, 14:20:29.900
69, -3646.08, -3427.52, -3397.58, -3839.83, 0.000, 0.000, 0.000, 14:20:29.910
70, -3647.05, -3425.10, -3388.24, -3851.26, 0.000, 0.000, 0.000, 14:20:29.911
71, -3655.96, -3427.19, -3400.25, -3865.15, 0.000, 0.000, 0.000, 14:20:29.911
72, -3637.48, -3414.69, -3411.64, -3854.48, 0.000, 0.000, 0.000, 14:20:29.911
73, -3637.82, -3411.16, -3394.44, -3862.16, 0.000, 0.000, 0.000, 14:20:29.929
74, -3651.54, -3428.98, -3414.95, -3870.02, 0.000, 0.000, 0.000, 14:20:29.929
75, -3649.39, -3423.11, -3402.12, -3877.25, 0.000, 0.000, 0.000, 14:20:29.940
76, -3640.87, -3413.27, -3402.43, -3839.96, 0.000, 0.000, 0.000, 14:20:29.940
77, -3649.27, -3413.33, -3395.04, -3846.50, 0.000, 0.000, 0.000, 14:20:29.941
78, -3645.04, -3416.93, -3394.14, -3855.97, 0.000, 0.000, 0.000, 14:20:29.941
79, -3637.40, -3417.82, -3388.65, -3853.65, 0.000, 0.000, 0.000, 14:20:29.970
80, -3642.43, -3430.40, -3410.85, -3848.88, 0.000, 0.000, 0.000, 14:20:29.970
81, -3635.55, -3417.27, -3385.73, -3842.61, 0.000, 0.000, 0.000, 14:20:29.971
82, -3632.94, -3410.17, -3383.15, -3850.81, 0.000, 0.000, 0.000, 14:20:29.971
83, -3629.83, -3421.49, -3395.07, -3854.64, 0.000, 0.000, 0.000, 14:20:29.971
84, -3619.16, -3406.73, -3382.09, -3844.28, 0.000, 0.000, 0.000, 14:20:29.971
85, -3620.08, -3410.91, -3373.96, -3843.30, 0.000, 0.000, 0.000, 14:20:30.002
86, -3632.85, -3431.32, -3396.48, -3844.32, 0.000, 0.000, 0.000, 14:20:30.002
87, -3637.28, -3428.86, -3406.07, -3864.65, 0.000, 0.000, 0.000, 14:20:30.002
88, -3618.94, -3420.92, -3377.96, -3844.68, 0.000, 0.000, 0.000, 14:20:30.002
89, -3621.74, -3430.36, -3398.68, -3851.77, 0.000, 0.000, 0.000, 14:20:30.002
90, -3632.26, -3431.01, -3396.11, -3857.85, 0.000, 0.000, 0.000, 14:20:30.002
91, -3623.85, -3422.41, -3395.36, -3853.68, 0.000, 0.000, 0.000, 14:20:30.016
92, -3642.09, -3434.07, -3386.73, -3859.87, 0.000, 0.000, 0.000, 14:20:30.016
93, -3628.74, -3418.37, -3392.42, -3856.88, 0.000, 0.000, 0.000, 14:20:30.030
94, -3616.63, -3407.67, -3387.34, -3854.57, 0.000, 0.000, 0.000, 14:20:30.031
95, -3623.75, -3416.04, -3394.67, -3856.87, 0.000, 0.000, 0.000, 14:20:30.031
96, -3623.43, -3408.99, -3387.69, -3846.90, 0.000, 0.000, 0.000, 14:20:30.031
97, -3617.81, -3404.52, -3377.04, -3845.22, 0.000, 0.000, 0.000, 14:20:30.046
98, -3634.50, -3424.38, -3405.33, -3861.46, 0.000, 0.000, 0.000, 14:20:30.046
99, -3618.22, -3417.03, -3397.75, -3854.99, 0.000, 0.000, 0.000, 14:20:30.127
100, -3625.00, -3411.96, -3382.83, -3846.22, 0.000, 0.000, 0.000, 14:20:30.127
101, -3629.64, -3412.48, -3395.37, -3870.51, 0.000, 0.000, 0.000, 14:20:30.129
102, -3635.30, -3419.84, -3401.88, -3854.30, 0.000, 0.000, 0.000, 14:20:30.129
103, -3630.37, -3427.31, -3403.40, -3857.49, 0.000, 0.000, 0.000, 14:20:30.130
104, -3649.25, -3448.63, -3413.87, -3872.37, 0.000, 0.000, 0.000, 14:20:30.130
105, -3646.43, -3442.99, -3403.39, -3866.12, 0.000, 0.000, 0.000, 14:20:30.130
106, -3658.54, -3451.14, -3418.63, -3874.80, 0.000, 0.000, 0.000, 14:20:30.130
107, -3668.55, -3452.69, -3411.19, -3877.14, 0.000, 0.000, 0.000, 14:20:30.130
108, -3657.99, -3455.70, -3422.55, -3874.16, 0.000, 0.000, 0.000, 14:20:30.130
109, -3665.36, -3459.48, -3420.57, -3867.04, 0.000, 0.000, 0.000, 14:20:30.130
110, -3671.79, -3468.32, -3426.09, -3881.73, 0.000, 0.000, 0.000, 14:20:30.130
111, -3673.79, -3462.54, -3418.67, -3871.80, 0.000, 0.000, 0.000, 14:20:30.130
112, -3669.26, -3469.06, -3417.03, -3876.15, 0.000, 0.000, 0.000, 14:20:30.130
113, -3671.28, -3468.93, -3422.20, -3878.30, 0.000, 0.000, 0.000, 14:20:30.130
114, -3665.22, -3457.11, -3421.66, -3874.90, 0.000, 0.000, 0.000, 14:20:30.130
115, -3669.09, -3448.53, -3416.36, -3862.47, 0.000, 0.000, 0.000, 14:20:30.136
116, -3675.42, -3454.49, -3408.68, -3865.34, 0.000, 0.000, 0.000, 14:20:30.136
117, -3673.12, -3449.32, -3423.93, -3870.10, 0.000, 0.000, 0.000, 14:20:30.156
118, -3663.69, -3442.44, -3420.20, -3863.85, 0.000, 0.000, 0.000, 14:20:30.156
119, -3660.18, -3449.44, -3420.48, -3883.01, 0.000, 0.000, 0.000, 14:20:30.156
