%OpenBCI Raw EEG Data
%
%Sample Rate = 200.0 Hz
%First Column = SampleIndex
%Last Column = Timestamp 
%Other Columns = EEG data in microvolts followed by Accel Data (in G) interleaved with Aux Data
0, -2585.16, -2306.04, -2073.71, -2007.86, 0.000, 0.000, 0.000, 15:28:43.351
1, -2548.36, -2265.58, -2044.01, -1966.88, 0.000, 0.000, 0.000, 15:28:43.381
2, -2556.60, -2271.73, -2046.61, -1972.44, 0.000, 0.000, 0.000, 15:28:43.382
3, -2589.99, -2310.32, -2088.34, -2011.63, 0.000, 0.000, 0.000, 15:28:43.382
4, -2581.27, -2295.86, -2072.01, -1993.42, 0.000, 0.000, 0.000, 15:28:43.382
5, -2545.42, -2265.10, -2046.23, -1963.92, 0.000, 0.000, 0.000, 15:28:43.383
6, -2542.88, -2258.53, -2033.55, -1960.18, 0.000, 0.000, 0.000, 15:28:43.383
7, -2585.16, -2298.90, -2091.44, -1995.87, 0.000, 0.000, 0.000, 15:28:43.396
8, -2571.20, -2282.91, -2074.80, -1990.62, 0.000, 0.000, 0.000, 15:28:43.396
9, -2556.47, -2267.12, -2051.01, -1971.60, 0.000, 0.000, 0.000, 15:28:43.410
10, -2552.82, -2264.01, -2044.15, -1957.99, 0.000, 0.000, 0.000, 15:28:43.410
11, -2581.22, -2290.26, -2080.31, -1996.40, 0.000, 0.000, 0.000, 15:28:43.411
12, -2579.89, -2293.72, -2067.94, -1998.85, 0.000, 0.000, 0.000, 15:28:43.411
13, -2539.45, -2254.36, -2033.14, -1945.83, 0.000, 0.000, 0.000, 15:28:43.423
14, -2554.34, -2258.66, -2045.69, -1969.60, 0.000, 0.000, 0.000, 15:28:43.424
15, -2582.56, -2286.70, -2070.12, -1987.22, 0.000, 0.000, 0.000, 15:28:43.447
16, -2586.69, -2303.25, -2070.75, -2004.16, 0.000, 0.000, 0.000, 15:28:43.447
17, -2545.49, -2260.37, -2040.11, -1962.16, 0.000, 0.000, 0.000, 15:28:43.448
18, -2540.82, -2250.95, -2036.40, -1959.59, 0.000, 0.000, 0.000, 15:28:43.448
19, -2576.59, -2285.66, -2080.88, -1996.68, 0.000, 0.000, 0.000, 15:28:43.472
20, -2566.37, -2281.27, -2066.59, -1984.39, 0.000, 0.000, 0.000, 15:28:43.472
21, -2541.75, -2249.69, -2040.77, -1959.75, 0.000, 0.000, 0.000, 15:28:43.536
22, -2543.43, -2245.82, -2034.16, -1959.51, 0.000, 0.000, 0.000, 15:28:43.541
23, -2568.15, -2267.04, -2063.22, -1973.99, 0.000, 0.000, 0.000, 15:28:43.541
24, -2560.21, -2266.20, -2056.53, -1981.03, 0.000, 0.000, 0.000, 15:28:43.541
25, -2550.36, -2249.35, -2042.28, -1961.73, 0.000, 0.000, 0.000, 15:28:43.558
26, -2540.48, -2249.17, -2038.31, -1955.73, 0.000, 0.000, 0.000, 15:28:43.559
27, -2565.86, -2278.69, -2061.25, -1984.57, 0.000, 0.000, 0.000, 15:28:43.560
28, -2568.88, -2270.33, -2062.16, -1983.26, 0.000, 0.000, 0.000, 15:28:43.561
29, -2558.33, -2263.45, -2051.99, -1970.50, 0.000, 0.000, 0.000, 15:28:43.561
30, -2537.18, -2250.72, -2034.70, -1953.25, 0.000, 0.000, 0.000, 15:28:43.561
31, -2584.75, -2289.58, -2078.73, -1998.92, 0.000, 0.000, 0.000, 15:28:43.562
32, -2581.55, -2276.92, -2071.81, -1991.27, 0.000, 0.000, 0.000, 15:28:43.563
33, -2549.96, -2246.44, -2044.49, -1962.46, 0.000, 0.000, 0.000, 15:28:43.563
34, -2545.19, -2260.38, -2041.15, -1967.89, 0.000, 0.000, 0.000, 15:28:43.564
35, -2576.32, -2280.60, -2075.72, -1990.47, 0.000, 0.000, 0.000, 15:28:43.564
36, -2573.60, -2282.90, -2074.90, -1974.37, 0.000, 0.000, 0.000, 15:28:43.564
37, -2562.13, -2274.72, -2067.87, -1994.88, 0.000, 0.000, 0.000, 15:28:43.579
38, -2535.27, -2257.13, -2040.15, -1971.39, 0.000, 0.000, 0.000, 15:28:43.580
39, -2574.84, -2282.75, -2072.24, -1996.43, 0.000, 0.000, 0.000, 15:28:43.580
40, -2577.20, -2283.67, -2074.84, -2003.51, 0.000, 0.000, 0.000, 15:28:43.580
41, -2542.02, -2255.80, -2041.41, -1961.55, 0.000, 0.000, 0.000, 15:28:43.580
42, -2537.97, -2246.44, -2028.55, -1950.14, 0.000, 0.000, 0.000, 15:28:43.581
43, -2575.84, -2282.25, -2071.57, -1990.86, 0.000, 0.000, 0.000, 15:28:43.591
44, -2576.67, -2280.01, -2075.80, -1990.51, 0.000, 0.000, 0.000, 15:28:43.592
45, -2548.12, -2256.94, -2043.30, -1960.45, 0.000, 0.000, 0.000, 15:28:43.592
46, -2545.37, -2239.61, -2033.79, -1944.61, 0.000, 0.000, 0.000, 15:28:43.593
47, -2579.96, -2291.30, -2073.84, -1992.90, 0.000, 0.000, 0.000, 15:28:43.593
48, -2571.82, -2276.78, -2055.52, -1965.44, 0.000, 0.000, 0.000, 15:28:43.593
49, -2542.53, -2238.30, -2033.51, -1950.46, 0.000, 0.000, 0.000, 15:28:43.840
50, -2542.48, -2252.38, -2033.47, -1956.04, 0.000, 0.000, 0.000, 15:28:43.840
51, -2569.73, -2287.38, -2072.52, -1993.71, 0.000, 0.000, 0.000, 15:28:43.841
52, -2553.94, -2264.63, -2054.12, -1980.11, 0.000, 0.000, 0.000, 15:28:43.841
53, -2526.64, -2232.21, -2031.28, -1921.96, 0.000, 0.000, 0.000, 15:28:43.842
54, -2533.74, -2250.59, -2033.81, -1964.55, 0.000, 0.000, 0.000, 15:28:43.847
55, -2559.01, -2275.17, -2065.36, -1989.41, 0.000, 0.000, 0.000, 15:28:43.847
56, -2553.32, -2268.91, -2060.18, -1981.89, 0.000, 0.000, 0.000, 15:28:43.848
57, -2528.87, -2250.43, -2024.54, -1954.65, 0.000, 0.000, 0.000, 15:28:43.848
58, -2521.45, -2238.95, -2031.57, -1942.89, 0.000, 0.000, 0.000, 15:28:43.848
59, -2554.18, -2272.05, -2059.21, -1980.34, 0.000, 0.000, 0.000, 15:28:43.848
60, -2551.54, -2267.61, -2053.99, -1974.02, 0.000, 0.000, 0.000, 15:28:43.849
61, -2532.36, -2251.49, -2034.56, -1939.99, 0.000, 0.000, 0.000, 15:28:43.849
62, -2529.18, -2249.43, -2023.75, -1973.57, 0.000, 0.000, 0.000, 15:28:43.849
63, -2560.66, -2279.67, -2065.25, -1989.96, 0.000, 0.000, 0.000, 15:28:43.849
64, -2564.67, -2285.51, -2072.32, -1995.79, 0.000, 0.000, 0.000, 15:28:43.850
65, -2550.61, -2253.29, -2047.14, -1960.52, 0.000, 0.000, 0.000, 15:28:43.850
66, -2538.85, -2261.81, -2030.88, -1949.76, 0.000, 0.000, 0.000, 15:28:43.850
67, -2572.94, -2281.11, -2059.04, -1972.22, 0.000, 0.000, 0.000, 15:28:43.851
68, -2574.99, -2284.51, -2054.99, -1979.22, 0.000, 0.000, 0.000, 15:28:43.851
69, -2554.26, -2265.21, -2038.60, -1952.30, 0.000, 0.000, 0.000, 15:28:43.851
70, -2553.23, -2250.27, -2025.19, -1951.51, 0.000, 0.000, 0.000, 15:28:43.851
71, -2580.89, -2287.82, -2070.26, -1978.84, 0.000, 0.000, 0.000, 15:28:43.852
72, -2582.73, -2295.46, -2075.91, -1982.50, 0.000, 0.000, 0.000, 15:28:43.852
73, -2557.42, -2264.49, -2050.78, -1965.55, 0.000, 0.000, 0.000, 15:28:43.852
74, -2545.11, -2243.76, -2038.91, -1949.78, 0.000, 0.000, 0.000, 15:28:43.852
75, -2569.99, -2284.60, -2068.09, -1971.75, 0.000, 0.000, 0.000, 15:28:43.853
76, -2567.48, -2274.06, -2066.95, -1971.73, 0.000, 0.000, 0.000, 15:28:43.853
77, -2544.70, -2246.87, -2046.93, -1963.75, 0.000, 0.000, 0.000, 15:28:43.853
78, -2533.47, -2233.36, -2031.19, -1948.69, 0.000, 0.000, 0.000, 15:28:43.853
79, -2561.95, -2280.77, -2062.69, -1988.21, 0.000, 0.000, 0.000, 15:28:43.854
80, -2567.86, -2268.50, -2061.34, -1978.37, 0.000, 0.000, 0.000, 15:28:43.854
81, -2536.82, -2242.78, -2042.51, -1954.83, 0.000, 0.000, 0.000, 15:28:43.854
82, -2531.70, -2238.59, -2036.40, -1956.07, 0.000, 0.000, 0.000, 15:28:43.854
83, -2561.74, -2271.00, -2059.82, -1984.59, 0.000, 0.000, 0.000, 15:28:43.855
84, -2555.25, -2252.43, -2067.72, -1972.43, 0.000, 0.000, 0.000, 15:28:43.855
85, -2540.28, -2255.90, -2042.69, -1961.79, 0.000, 0.000, 0.000, 15:28:43.855
86, -2517.57, -2227.72, -2015.35, -1941.38, 0.000, 0.000, 0.000, 15:28:43.855
87, -2548.77, -2263.93, -2055.45, -1966.58, 0.000, 0.000, 0.000, 15:28:43.856
88, -2560.59, -2274.00, -2059.09, -1980.68, 0.000, 0.000, 0.000, 15:28:43.856
89, -2545.26, -2254.93, -2044.18, -1946.32, 0.000, 0.000, 0.000, 15:28:43.856
90, -2534.65, -2244.96, -2027.58, -1962.53, 0.000, 0.000, 0.000, 15:28:43.856
91, -2573.74, -2288.20, -2067.67, -1998.35, 0.000, 0.000, 0.000, 15:28:43.857
92, -2576.38, -2279.02, -2067.50, -1981.92, 0.000, 0.000, 0.000, 15:28:43.857
93, -2559.93, -2267.08, -2050.11, -1968.86, 0.000, 0.000, 0.000, 15:28:43.857
94, -2535.48, -2243.57, -2029.47, -1943.06, 0.000, 0.000, 0.000, 15:28:43.858
95, -2564.56, -2275.43, -2057.76, -1982.77, 0.000, 0.000, 0.000, 15:28:43.858
96, -2569.77, -2284.25, -2058.59, -1976.67, 0.000, 0.000, 0.000, 15:28:43.858
97, -2550.29, -2264.52, -2046.04, -1958.94, 0.000, 0.000, 0.000, 15:28:43.865
98, -2541.86, -2247.00, -2038.93, -1949.44, 0.000, 0.000, 0.000, 15:28:43.865
99, -2572.42, -2285.10, -2059.47, -1986.70, 0.000, 0.000, 0.000, 15:28:43.865
100, -2577.17, -2286.64, -2061.63, -1984.17, 0.000, 0.000, 0.000, 15:28:43.866
101, -2551.57, -2264.75, -2042.74, -1967.66, 0.000, 0.000, 0.000, 15:28:43.866
102, -2529.30, -2245.91, -2019.32, -1939.94, 0.000, 0.000, 0.000, 15:28:43.866
103, -2566.36, -2277.33, -2059.56, -1965.57, 0.000, 0.000, 0.000, 15:28:43.879
104, -2571.18, -2279.75, -2065.46, -1995.68, 0.000, 0.000, 0.000, 15:28:43.880
105, -2538.58, -2246.38, -2033.42, -1963.93, 0.000, 0.000, 0.000, 15:28:43.889
106, -2526.11, -2231.34, -2013.64, -1940.66, 0.000, 0.000, 0.000, 15:28:43.890
107, -2552.81, -2261.32, -2050.15, -1979.16, 0.000, 0.000, 0.000, 15:28:43.895
108, -2555.85, -2264.51, -2057.28, -1979.49, 0.000, 0.000, 0.000, 15:28:43.896
109, -2525.83, -2237.10, -2034.61, -1950.12, 0.000, 0.000, 0.000, 15:28:43.907
110, -2513.84, -2235.69, -2012.46, -1945.35, 0.000, 0.000, 0.000, 15:28:43.910
111, -2552.74, -2263.17, -2057.64, -1977.86, 0.000, 0.000, 0.000, 15:28:43.919
112, -2549.47, -2260.36, -2053.38, -1976.55, 0.000, 0.000, 0.000, 15:28:43.920
113, -2536.69, -2245.13, -2042.27, -1957.85, 0.000, 0.000, 0.000, 15:28:43.920
114, -2528.25, -2242.21, -2036.01, -1941.65, 0.000, 0.000, 0.000, 15:28:43.920
115, -2564.05, -2280.31, -2066.98, -1984.42, 0.000, 0.000, 0.000, 15:28:43.934
116, -2571.99, -2270.50, -2067.02, -1976.63, 0.000, 0.000, 0.000, 15:28:43.934
117, -2546.27, -2255.66, -2040.92, -1960.18, 0.000, 0.000, 0.000, 15:28:43.949
118, -2539.03, -2255.35, -2030.72, -1955.03, 0.000, 0.000, 0.000, 15:28:43.949
119, -2568.96, -2280.31, -2067.56, -1999.65, 0.000, 0.000, 0.000, 15:28:43.949
120, -2572.63, -2283.05, -2061.23, -1987.09, 0.000, 0.000, 0.000, 15:28:43.950
121, -2561.66, -2269.34, -2049.01, -1975.68, 0.000, 0.000, 0.000, 15:28:43.964
122, -2543.15, -2250.90, -2028.75, -1958.78, 0.000, 0.000, 0.000, 15:28:43.965
123, -2573.27, -2281.76, -2059.40, -1984.19, 0.000, 0.000, 0.000, 15:28:43.982
124, -2586.40, -2287.66, -2076.48, -1990.75, 0.000, 0.000, 0.000, 15:28:43.983
125, -2567.00, -2272.55, -2059.11, -1974.99, 0.000, 0.000, 0.000, 15:28:43.994
126, -2547.24, -2249.09, -2044.06, -1953.82, 0.000, 0.000, 0.000, 15:28:43.994
127, -2582.34, -2281.27, -2071.21, -1983.04, 0.000, 0.000, 0.000, 15:28:43.995
128, -2582.31, -2286.51, -2075.30, -1983.30, 0.000, 0.000, 0.000, 15:28:43.997
129, -2557.88, -2251.43, -2051.26, -1943.93, 0.000, 0.000, 0.000, 15:28:44.008
130, -2537.28, -2239.44, -2034.93, -1944.08, 0.000, 0.000, 0.000, 15:28:44.009
131, -2570.71, -2272.26, -2067.07, -1976.85, 0.000, 0.000, 0.000, 15:28:44.009
132, -2573.77, -2271.89, -2066.24, -1973.44, 0.000, 0.000, 0.000, 15:28:44.009
133, -2558.19, -2263.44, -2045.85, -1963.40, 0.000, 0.000, 0.000, 15:28:44.030
134, -2527.02, -2236.84, -2020.30, -1936.83, 0.000, 0.000, 0.000, 15:28:44.031
135, -2558.61, -2261.52, -2048.01, -1965.83, 0.000, 0.000, 0.000, 15:28:44.040
136, -2568.45, -2269.50, -2060.31, -1979.47, 0.000, 0.000, 0.000, 15:28:44.041
137, -2546.02, -2249.49, -2037.47, -1964.45, 0.000, 0.000, 0.000, 15:28:44.041
138, -2531.10, -2247.22, -2022.69, -1956.94, 0.000, 0.000, 0.000, 15:28:44.043
139, -2557.49, -2266.96, -2053.57, -1968.42, 0.000, 0.000, 0.000, 15:28:44.093
140, -2573.44, -2278.00, -2059.94, -1981.79, 0.000, 0.000, 0.000, 15:28:44.093
141, -2557.47, -2275.34, -2053.34, -1964.65, 0.000, 0.000, 0.000, 15:28:44.098
142, -2547.26, -2261.92, -2045.21, -1966.57, 0.000, 0.000, 0.000, 15:28:44.099
143, -2566.55, -2283.73, -2058.71, -1971.97, 0.000, 0.000, 0.000, 15:28:44.099
144, -2578.07, -2286.27, -2070.00, -2003.03, 0.000, 0.000, 0.000, 15:28:44.100
145, -2551.02, -2263.86, -2051.20, -1982.89, 0.000, 0.000, 0.000, 15:28:44.101
146, -2523.03, -2229.64, -2024.88, -1934.15, 0.000, 0.000, 0.000, 15:28:44.101
147, -2559.54, -2270.66, -2063.03, -1980.64, 0.000, 0.000, 0.000, 15:28:44.101
148, -2579.21, -2280.16, -2069.48, -1986.08, 0.000, 0.000, 0.000, 15:28:44.102
149, -2555.63, -2261.36, -2049.31, -1965.14, 0.000, 0.000, 0.000, 15:28:44.102
150, -2536.93, -2248.04, -2030.57, -1945.85, 0.000, 0.000, 0.000, 15:28:44.102
151, -2568.59, -2275.36, -2063.88, -1976.41, 0.000, 0.000, 0.000, 15:28:44.160
152, -2570.84, -2274.61, -2061.89, -1973.00, 0.000, 0.000, 0.000, 15:28:44.161
153, -2551.74, -2254.44, -2043.02, -1963.67, 0.000, 0.000, 0.000, 15:28:44.162
154, -2533.73, -2241.95, -2028.07, -1940.72, 0.000, 0.000, 0.000, 15:28:44.162
155, -2567.26, -2270.31, -2061.15, -1968.40, 0.000, 0.000, 0.000, 15:28:44.162
156, -2567.08, -2274.80, -2064.46, -1958.54, 0.000, 0.000, 0.000, 15:28:44.164
157, -2565.34, -2271.83, -2057.09, -1986.02, 0.000, 0.000, 0.000, 15:28:44.165
158, -2537.87, -2222.53, -2021.66, -1931.60, 0.000, 0.000, 0.000, 15:28:44.165
159, -2560.73, -2273.26, -2054.74, -1981.22, 0.000, 0.000, 0.000, 15:28:44.166
160, -2573.73, -2281.18, -2073.42, -1983.55, 0.000, 0.000, 0.000, 15:28:44.166
161, -2549.47, -2253.76, -2045.16, -1955.93, 0.000, 0.000, 0.000, 15:28:44.166
162, -2545.22, -2248.78, -2037.67, -1951.68, 0.000, 0.000, 0.000, 15:28:44.167
163, -2568.52, -2274.15, -2058.75, -1973.77, 0.000, 0.000, 0.000, 15:28:44.174
164, -2578.83, -2284.93, -2077.57, -1990.06, 0.000, 0.000, 0.000, 15:28:44.174
165, -2561.87, -2270.63, -2053.93, -1962.25, 0.000, 0.000, 0.000, 15:28:44.192
166, -2536.43, -2245.86, -2019.66, -1941.83, 0.000, 0.000, 0.000, 15:28:44.193
167, -2563.88, -2270.29, -2057.59, -1973.78, 0.000, 0.000, 0.000, 15:28:44.193
168, -2581.20, -2286.60, -2065.43, -1983.04, 0.000, 0.000, 0.000, 15:28:44.193
169, -2559.68, -2265.97, -2046.71, -1956.20, 0.000, 0.000, 0.000, 15:28:44.203
170, -2534.32, -2245.00, -2022.09, -1947.14, 0.000, 0.000, 0.000, 15:28:44.204
171, -2550.02, -2265.66, -2044.08, -1973.37, 0.000, 0.000, 0.000, 15:28:44.218
172, -2562.43, -2281.31, -2061.70, -1994.08, 0.000, 0.000, 0.000, 15:28:44.219
173, -2554.25, -2265.85, -2048.39, -1974.50, 0.000, 0.000, 0.000, 15:28:44.219
174, -2529.15, -2235.17, -2022.44, -1948.16, 0.000, 0.000, 0.000, 15:28:44.219
175, -2554.16, -2273.49, -2052.04, -1987.41, 0.000, 0.000, 0.000, 15:28:44.233
176, -2566.21, -2270.61, -2071.96, -1980.98, 0.000, 0.000, 0.000, 15:28:44.234
177, -2557.22, -2277.87, -2061.07, -1980.93, 0.000, 0.000, 0.000, 15:28:44.248
178, -2527.61, -2230.97, -2022.66, -1934.81, 0.000, 0.000, 0.000, 15:28:44.249
179, -2564.84, -2282.88, -2056.47, -1989.48, 0.000, 0.000, 0.000, 15:28:44.263
180, -2575.04, -2289.59, -2064.58, -1976.69, 0.000, 0.000, 0.000, 15:28:44.264
181, -2557.43, -2264.83, -2058.24, -1971.68, 0.000, 0.000, 0.000, 15:28:44.264
182, -2524.76, -2243.83, -2023.73, -1947.71, 0.000, 0.000, 0.000, 15:28:44.265
183, -2557.47, -2274.04, -2058.28, -1979.22, 0.000, 0.000, 0.000, 15:28:44.278
184, -2571.29, -2287.60, -2074.79, -1991.17, 0.000, 0.000, 0.000, 15:28:44.279
185, -2548.02, -2266.21, -2039.34, -1967.17, 0.000, 0.000, 0.000, 15:28:44.279
186, -2533.23, -2245.00, -2025.09, -1946.60, 0.000, 0.000, 0.000, 15:28:44.280
187, -2548.01, -2253.58, -2044.55, -1965.98, 0.000, 0.000, 0.000, 15:28:44.293
188, -2572.99, -2285.48, -2063.66, -1993.34, 0.000, 0.000, 0.000, 15:28:44.296
189, -2549.68, -2260.93, -2041.64, -1971.08, 0.000, 0.000, 0.000, 15:28:44.343
190, -2532.62, -2242.64, -2029.74, -1949.78, 0.000, 0.000, 0.000, 15:28:44.344
191, -2552.75, -2266.31, -2050.65, -1972.31, 0.000, 0.000, 0.000, 15:28:44.347
192, -2577.14, -2292.22, -2076.63, -1998.72, 0.000, 0.000, 0.000, 15:28:44.347
193, -2556.33, -2267.33, -2052.61, -1975.22, 0.000, 0.000, 0.000, 15:28:44.348
194, -2537.53, -2237.51, -2029.30, -1934.12, 0.000, 0.000, 0.000, 15:28:44.348
195, -2552.48, -2266.47, -2052.95, -1974.88, 0.000, 0.000, 0.000, 15:28:44.365
196, -2567.72, -2278.00, -2071.79, -1987.30, 0.000, 0.000, 0.000, 15:28:44.366
197, -2553.67, -2256.14, -2051.69, -1970.93, 0.000, 0.000, 0.000, 15:28:44.366
198, -2532.65, -2238.05, -2034.88, -1944.46, 0.000, 0.000, 0.000, 15:28:44.366
199, -2540.57, -2239.71, -2041.03, -1953.93, 0.000, 0.000, 0.000, 15:28:44.367
200, -2576.91, -2289.69, -2073.31, -1997.00, 0.000, 0.000, 0.000, 15:28:44.367
0, -2552.74, -2254.13, -2048.94, -1965.22, 0.000, 0.000, 0.000, 15:28:44.367
1, -2525.21, -2243.49, -2028.63, -1950.48, 0.000, 0.000, 0.000, 15:28:44.383
2, -2555.81, -2265.37, -2053.95, -1979.13, 0.000, 0.000, 0.000, 15:28:44.383
3, -2576.50, -2285.06, -2069.37, -2000.84, 0.000, 0.000, 0.000, 15:28:44.418
4, -2564.66, -2267.66, -2050.92, -1979.56, 0.000, 0.000, 0.000, 15:28:44.418
5, -2541.77, -2247.11, -2040.29, -1954.13, 0.000, 0.000, 0.000, 15:28:44.418
6, -2561.58, -2269.02, -2059.66, -1976.27, 0.000, 0.000, 0.000, 15:28:44.419
7, -2568.72, -2281.53, -2059.41, -1971.60, 0.000, 0.000, 0.000, 15:28:44.419
8, -2559.79, -2263.17, -2061.40, -1986.54, 0.000, 0.000, 0.000, 15:28:44.420
9, -2524.69, -2239.08, -2027.44, -1945.43, 0.000, 0.000, 0.000, 15:28:44.420
10, -2556.17, -2262.91, -2057.26, -1975.76, 0.000, 0.000, 0.000, 15:28:44.420
11, -2580.50, -2288.00, -2074.67, -1986.26, 0.000, 0.000, 0.000, 15:28:44.420
12, -2562.65, -2266.88, -2051.60, -1971.04, 0.000, 0.000, 0.000, 15:28:44.421
13, -2537.08, -2245.38, -2028.70, -1950.01, 0.000, 0.000, 0.000, 15:28:44.428
14, -2549.92, -2256.59, -2039.68, -1963.13, 0.000, 0.000, 0.000, 15:28:44.429
15, -2572.17, -2283.44, -2067.22, -1986.33, 0.000, 0.000, 0.000, 15:28:44.605
16, -2560.44, -2276.31, -2062.61, -1978.82, 0.000, 0.000, 0.000, 15:28:44.605
17, -2540.97, -2244.14, -2035.65, -1949.42, 0.000, 0.000, 0.000, 15:28:44.622
18, -2554.73, -2262.53, -2049.60, -1967.32, 0.000, 0.000, 0.000, 15:28:44.623
19, -2579.41, -2293.30, -2070.72, -1991.86, 0.000, 0.000, 0.000, 15:28:44.623
20, -2562.09, -2261.37, -2048.60, -1963.77, 0.000, 0.000, 0.000, 15:28:44.624
21, -2545.75, -2249.55, -2029.84, -1951.09, 0.000, 0.000, 0.000, 15:28:44.624
22, -2564.92, -2269.06, -2051.86, -1969.43, 0.000, 0.000, 0.000, 15:28:44.624
23, -2586.61, -2295.83, -2084.32, -1999.10, 0.000, 0.000, 0.000, 15:28:44.625
24, -2564.91, -2271.67, -2059.36, -1974.86, 0.000, 0.000, 0.000, 15:28:44.625
25, -2543.59, -2244.50, -2036.37, -1947.64, 0.000, 0.000, 0.000, 15:28:44.625
26, -2561.09, -2269.29, -2052.03, -1971.47, 0.000, 0.000, 0.000, 15:28:44.625
27, -2581.05, -2285.82, -2074.35, -1995.01, 0.000, 0.000, 0.000, 15:28:44.626
28, -2565.80, -2267.20, -2055.29, -1973.94, 0.000, 0.000, 0.000, 15:28:44.626
29, -2537.06, -2240.99, -2035.73, -1946.67, 0.000, 0.000, 0.000, 15:28:44.626
30, -2538.87, -2257.07, -2032.99, -1953.04, 0.000, 0.000, 0.000, 15:28:44.628
31, -2561.83, -2275.92, -2060.40, -1982.31, 0.000, 0.000, 0.000, 15:28:44.629
32, -2551.35, -2265.82, -2062.16, -1968.46, 0.000, 0.000, 0.000, 15:28:44.629
33, -2530.67, -2239.51, -2030.49, -1942.20, 0.000, 0.000, 0.000, 15:28:44.629
34, -2542.72, -2254.79, -2045.14, -1963.03, 0.000, 0.000, 0.000, 15:28:44.629
35, -2570.26, -2279.36, -2067.81, -1984.42, 0.000, 0.000, 0.000, 15:28:44.650
36, -2559.77, -2273.54, -2054.91, -1976.23, 0.000, 0.000, 0.000, 15:28:44.650
37, -2528.79, -2242.68, -2028.19, -1955.03, 0.000, 0.000, 0.000, 15:28:44.650
38, -2545.94, -2258.48, -2043.33, -1964.15, 0.000, 0.000, 0.000, 15:28:44.651
39, -2573.20, -2286.62, -2071.57, -1992.20, 0.000, 0.000, 0.000, 15:28:44.651
40, -2566.20, -2279.16, -2060.30, -1994.81, 0.000, 0.000, 0.000, 15:28:44.651
41, -2540.76, -2248.96, -2039.15, -1962.50, 0.000, 0.000, 0.000, 15:28:44.652
42, -2552.64, -2255.32, -2057.75, -1966.08, 0.000, 0.000, 0.000, 15:28:44.652
43, -2576.08, -2284.81, -2083.23, -1995.24, 0.000, 0.000, 0.000, 15:28:44.652
44, -2563.94, -2264.58, -2064.98, -1963.23, 0.000, 0.000, 0.000, 15:28:44.653
45, -2532.54, -2247.11, -2026.59, -1958.27, 0.000, 0.000, 0.000, 15:28:44.653
46, -2558.03, -2270.04, -2053.75, -1984.47, 0.000, 0.000, 0.000, 15:28:44.730
47, -2578.18, -2282.00, -2076.15, -1989.25, 0.000, 0.000, 0.000, 15:28:44.731
48, -2563.24, -2273.24, -2050.44, -1970.64, 0.000, 0.000, 0.000, 15:28:44.736
49, -2540.83, -2263.01, -2029.71, -1963.01, 0.000, 0.000, 0.000, 15:28:44.736
50, -2553.60, -2263.17, -2049.12, -1969.39, 0.000, 0.000, 0.000, 15:28:44.737
51, -2573.35, -2282.02, -2069.91, -1985.00, 0.000, 0.000, 0.000, 15:28:44.737
52, -2563.62, -2265.36, -2051.21, -1965.92, 0.000, 0.000, 0.000, 15:28:44.737
53, -2538.00, -2246.27, -2034.50, -1948.77, 0.000, 0.000, 0.000, 15:28:44.738
54, -2554.68, -2259.26, -2044.45, -1964.12, 0.000, 0.000, 0.000, 15:28:44.744
55, -2581.57, -2292.47, -2068.58, -1990.85, 0.000, 0.000, 0.000, 15:28:44.778
56, -2575.36, -2275.55, -2058.26, -1960.18, 0.000, 0.000, 0.000, 15:28:44.779
57, -2553.06, -2261.53, -2037.68, -1964.75, 0.000, 0.000, 0.000, 15:28:44.779
58, -2564.13, -2269.46, -2044.61, -1964.49, 0.000, 0.000, 0.000, 15:28:44.779
59, -2578.24, -2297.65, -2074.59, -1997.97, 0.000, 0.000, 0.000, 15:28:44.779
60, -2571.26, -2280.18, -2055.26, -1976.24, 0.000, 0.000, 0.000, 15:28:44.780
61, -2542.90, -2251.82, -2028.28, -1951.44, 0.000, 0.000, 0.000, 15:28:44.780
62, -2545.79, -2253.56, -2042.60, -1955.80, 0.000, 0.000, 0.000, 15:28:44.780
63, -2569.17, -2275.41, -2061.65, -1982.85, 0.000, 0.000, 0.000, 15:28:44.781
64, -2552.44, -2256.65, -2040.79, -1970.45, 0.000, 0.000, 0.000, 15:28:44.781
65, -2533.94, -2242.81, -2027.63, -1944.10, 0.000, 0.000, 0.000, 15:28:44.781
66, -2540.64, -2255.20, -2035.88, -1964.71, 0.000, 0.000, 0.000, 15:28:44.781
67, -2571.54, -2282.89, -2070.80, -1990.47, 0.000, 0.000, 0.000, 15:28:44.782
68, -2559.14, -2270.05, -2056.97, -1970.40, 0.000, 0.000, 0.000, 15:28:44.782
69, -2530.75, -2242.26, -2024.25, -1945.09, 0.000, 0.000, 0.000, 15:28:44.782
70, -2541.96, -2256.89, -2041.35, -1967.71, 0.000, 0.000, 0.000, 15:28:44.782
71, -2569.51, -2285.28, -2066.89, -1985.79, 0.000, 0.000, 0.000, 15:28:44.783
72, -2548.06, -2262.57, -2040.06, -1965.29, 0.000, 0.000, 0.000, 15:28:44.783
73, -2532.24, -2242.06, -2035.00, -1960.36, 0.000, 0.000, 0.000, 15:28:44.783
74, -2544.62, -2253.38, -2037.41, -1956.42, 0.000, 0.000, 0.000, 15:28:44.783
75, -2572.87, -2279.63, -2063.88, -1984.96, 0.000, 0.000, 0.000, 15:28:44.844
76, -2562.19, -2270.56, -2053.83, -1976.56, 0.000, 0.000, 0.000, 15:28:44.845
77, -2536.26, -2242.91, -2025.73, -1941.84, 0.000, 0.000, 0.000, 15:28:44.845
78, -2554.73, -2254.62, -2043.04, -1951.91, 0.000, 0.000, 0.000, 15:28:44.845
79, -2581.36, -2290.96, -2072.03, -1984.19, 0.000, 0.000, 0.000, 15:28:44.845
80, -2570.19, -2269.41, -2059.13, -1972.26, 0.000, 0.000, 0.000, 15:28:44.846
81, -2541.43, -2248.24, -2030.33, -1947.27, 0.000, 0.000, 0.000, 15:28:44.846
82, -2548.56, -2255.61, -2039.94, -1950.38, 0.000, 0.000, 0.000, 15:28:44.846
83, -2575.55, -2283.56, -2065.65, -1979.98, 0.000, 0.000, 0.000, 15:28:44.847
84, -2572.62, -2277.38, -2061.48, -1989.48, 0.000, 0.000, 0.000, 15:28:44.847
85, -2544.15, -2254.70, -2034.34, -1949.35, 0.000, 0.000, 0.000, 15:28:44.847
86, -2549.70, -2258.04, -2040.59, -1958.71, 0.000, 0.000, 0.000, 15:28:44.847
87, -2578.82, -2288.24, -2078.04, -1999.51, 0.000, 0.000, 0.000, 15:28:44.848
88, -2561.63, -2266.30, -2052.00, -1980.55, 0.000, 0.000, 0.000, 15:28:44.848
89, -2539.79, -2248.69, -2042.80, -1960.07, 0.000, 0.000, 0.000, 15:28:44.848
90, -2547.10, -2265.72, -2038.16, -1965.34, 0.000, 0.000, 0.000, 15:28:44.848
91, -2575.79, -2287.98, -2074.12, -1993.04, 0.000, 0.000, 0.000, 15:28:44.849
92, -2564.56, -2276.26, -2058.02, -1979.34, 0.000, 0.000, 0.000, 15:28:44.849
93, -2534.50, -2246.73, -2032.55, -1952.59, 0.000, 0.000, 0.000, 15:28:44.849
94, -2539.62, -2248.86, -2036.94, -1942.76, 0.000, 0.000, 0.000, 15:28:44.850
95, -2571.15, -2280.68, -2074.63, -1991.25, 0.000, 0.000, 0.000, 15:28:44.850
96, -2560.15, -2283.32, -2057.55, -1980.45, 0.000, 0.000, 0.000, 15:28:44.850
97, -2539.33, -2249.78, -2033.57, -1958.42, 0.000, 0.000, 0.000, 15:28:44.850
98, -2543.99, -2258.50, -2040.15, -1967.63, 0.000, 0.000, 0.000, 15:28:44.851
99, -2573.43, -2286.26, -2071.22, -1999.60, 0.000, 0.000, 0.000, 15:28:44.914
100, -2566.44, -2275.48, -2057.88, -1978.28, 0.000, 0.000, 0.000, 15:28:44.935
101, -2541.55, -2243.89, -2032.72, -1955.54, 0.000, 0.000, 0.000, 15:28:44.935
102, -2537.24, -2241.88, -2024.57, -1951.03, 0.000, 0.000, 0.000, 15:28:44.936
103, -2575.85, -2284.44, -2071.86, -1966.67, 0.000, 0.000, 0.000, 15:28:44.936
104, -2575.55, -2274.38, -2064.72, -1983.01, 0.000, 0.000, 0.000, 15:28:44.936
105, -2546.79, -2247.75, -2035.06, -1946.96, 0.000, 0.000, 0.000, 15:28:44.936
106, -2561.04, -2269.24, -2044.26, -1969.00, 0.000, 0.000, 0.000, 15:28:44.937
107, -2594.65, -2299.02, -2087.55, -2003.41, 0.000, 0.000, 0.000, 15:28:44.937
108, -2586.59, -2277.57, -2070.22, -1977.25, 0.000, 0.000, 0.000, 15:28:44.937
109, -2553.91, -2251.95, -2053.52, -1961.98, 0.000, 0.000, 0.000, 15:28:44.938
110, -2539.54, -2246.33, -2032.87, -1953.51, 0.000, 0.000, 0.000, 15:28:44.938
111, -2573.64, -2269.64, -2067.55, -1985.26, 0.000, 0.000, 0.000, 15:28:44.941
112, -2566.78, -2262.51, -2062.41, -1969.51, 0.000, 0.000, 0.000, 15:28:44.941
113, -2541.80, -2242.76, -2034.19, -1951.15, 0.000, 0.000, 0.000, 15:28:44.946
114, -2536.67, -2238.56, -2034.04, -1938.49, 0.000, 0.000, 0.000, 15:28:44.947
115, -2575.90, -2284.29, -2070.08, -1996.05, 0.000, 0.000, 0.000, 15:28:44.947
116, -2565.39, -2281.46, -2049.85, -1996.15, 0.000, 0.000, 0.000, 15:28:44.947
117, -2531.70, -2250.56, -2027.48, -1961.53, 0.000, 0.000, 0.000, 15:28:45.017
118, -2526.55, -2252.31, -2016.68, -1960.81, 0.000, 0.000, 0.000, 15:28:45.018
119, -2566.24, -2281.02, -2065.47, -1985.78, 0.000, 0.000, 0.000, 15:28:45.018
120, -2563.23, -2274.95, -2061.49, -1987.00, 0.000, 0.000, 0.000, 15:28:45.018
121, -2529.11, -2240.01, -2034.53, -1950.60, 0.000, 0.000, 0.000, 15:28:45.022
122, -2523.69, -2235.84, -2025.47, -1947.54, 0.000, 0.000, 0.000, 15:28:45.022
123, -2563.58, -2281.87, -2060.13, -1989.72, 0.000, 0.000, 0.000, 15:28:45.022
124, -2558.49, -2267.86, -2048.01, -1981.16, 0.000, 0.000, 0.000, 15:28:45.022
125, -2541.37, -2252.73, -2030.07, -1965.39, 0.000, 0.000, 0.000, 15:28:45.023
126, -2535.26, -2245.87, -2026.60, -1953.20, 0.000, 0.000, 0.000, 15:28:45.023
127, -2574.71, -2288.99, -2074.50, -1995.06, 0.000, 0.000, 0.000, 15:28:45.023
128, -2563.08, -2276.22, -2053.14, -1982.26, 0.000, 0.000, 0.000, 15:28:45.023
129, -2543.83, -2252.79, -2042.94, -1959.27, 0.000, 0.000, 0.000, 15:28:45.024
130, -2538.30, -2250.48, -2028.21, -1961.94, 0.000, 0.000, 0.000, 15:28:45.024
131, -2570.43, -2281.62, -2065.93, -1983.29, 0.000, 0.000, 0.000, 15:28:45.024
132, -2579.08, -2288.70, -2073.56, -1993.24, 0.000, 0.000, 0.000, 15:28:45.024
133, -2530.62, -2229.14, -2020.79, -1936.66, 0.000, 0.000, 0.000, 15:28:45.035
134, -2542.77, -2256.67, -2029.41, -1948.64, 0.000, 0.000, 0.000, 15:28:45.035
135, -2581.08, -2299.74, -2072.76, -2003.48, 0.000, 0.000, 0.000, 15:28:45.080
136, -2574.69, -2282.37, -2060.41, -1987.17, 0.000, 0.000, 0.000, 15:28:45.080
137, -2543.72, -2254.46, -2030.30, -1958.10, 0.000, 0.000, 0.000, 15:28:45.081
138, -2542.50, -2250.83, -2035.07, -1949.33, 0.000, 0.000, 0.000, 15:28:45.081
139, -2575.74, -2281.23, -2067.27, -1990.26, 0.000, 0.000, 0.000, 15:28:45.110
140, -2571.86, -2285.68, -2064.05, -1988.47, 0.000, 0.000, 0.000, 15:28:45.110
141, -2539.88, -2251.23, -2033.46, -1956.23, 0.000, 0.000, 0.000, 15:28:45.111
142, -2538.95, -2245.45, -2032.54, -1940.80, 0.000, 0.000, 0.000, 15:28:45.114
143, -2568.93, -2284.16, -2060.85, -1981.62, 0.000, 0.000, 0.000, 15:28:45.114
144, -2571.33, -2273.32, -2063.97, -1979.79, 0.000, 0.000, 0.000, 15:28:45.115
145, -2544.97, -2244.47, -2036.46, -1952.45, 0.000, 0.000, 0.000, 15:28:45.115
146, -2545.26, -2250.09, -2039.73, -1961.93, 0.000, 0.000, 0.000, 15:28:45.115
147, -2569.81, -2281.44, -2077.15, -1994.79, 0.000, 0.000, 0.000, 15:28:45.115
148, -2552.95, -2268.41, -2061.82, -1973.96, 0.000, 0.000, 0.000, 15:28:45.116
149, -2542.07, -2245.46, -2051.25, -1960.85, 0.000, 0.000, 0.000, 15:28:45.116
150, -2542.40, -2243.49, -2044.99, -1963.51, 0.000, 0.000, 0.000, 15:28:45.116
151, -2574.35, -2274.79, -2069.49, -1988.43, 0.000, 0.000, 0.000, 15:28:45.140
152, -2569.66, -2273.43, -2073.59, -1983.48, 0.000, 0.000, 0.000, 15:28:45.140
153, -2540.30, -2250.55, -2041.56, -1953.50, 0.000, 0.000, 0.000, 15:28:45.140
154, -2550.20, -2260.57, -2045.46, -1974.41, 0.000, 0.000, 0.000, 15:28:45.141
155, -2572.98, -2282.80, -2070.65, -1992.13, 0.000, 0.000, 0.000, 15:28:45.141
156, -2575.71, -2275.56, -2060.66, -1979.85, 0.000, 0.000, 0.000, 15:28:45.141
157, -2552.21, -2260.33, -2037.00, -1964.03, 0.000, 0.000, 0.000, 15:28:45.170
158, -2544.55, -2240.47, -2022.05, -1961.13, 0.000, 0.000, 0.000, 15:28:45.170
159, -2581.87, -2299.11, -2062.37, -1999.16, 0.000, 0.000, 0.000, 15:28:45.171
160, -2570.15, -2283.68, -2064.58, -1980.99, 0.000, 0.000, 0.000, 15:28:45.171
161, -2546.92, -2256.28, -2039.86, -1960.41, 0.000, 0.000, 0.000, 15:28:45.172
162, -2539.13, -2252.18, -2029.91, -1946.70, 0.000, 0.000, 0.000, 15:28:45.173
163, -2577.69, -2297.07, -2072.66, -1992.17, 0.000, 0.000, 0.000, 15:28:45.178
164, -2571.75, -2271.65, -2058.89, -1963.94, 0.000, 0.000, 0.000, 15:28:45.179
165, -2547.38, -2263.84, -2041.80, -1970.18, 0.000, 0.000, 0.000, 15:28:45.237
166, -2538.45, -2250.07, -2030.41, -1954.98, 0.000, 0.000, 0.000, 15:28:45.237
167, -2567.16, -2277.04, -2066.03, -1989.96, 0.000, 0.000, 0.000, 15:28:45.238
168, -2562.22, -2266.21, -2051.65, -1962.82, 0.000, 0.000, 0.000, 15:28:45.238
169, -2542.68, -2244.11, -2040.05, -1967.58, 0.000, 0.000, 0.000, 15:28:45.239
170, -2532.24, -2236.77, -2021.57, -1948.67, 0.000, 0.000, 0.000, 15:28:45.241
171, -2575.48, -2279.81, -2066.48, -1983.19, 0.000, 0.000, 0.000, 15:28:45.241
172, -2568.86, -2270.81, -2062.91, -1974.08, 0.000, 0.000, 0.000, 15:28:45.241
173, -2545.89, -2251.55, -2041.21, -1946.50, 0.000, 0.000, 0.000, 15:28:45.242
174, -2537.42, -2246.99, -2032.02, -1961.34, 0.000, 0.000, 0.000, 15:28:45.242
175, -2570.73, -2264.05, -2067.01, -1990.63, 0.000, 0.000, 0.000, 15:28:45.245
176, -2564.91, -2273.65, -2054.25, -1978.12, 0.000, 0.000, 0.000, 15:28:45.246
177, -2545.90, -2259.66, -2041.26, -1971.99, 0.000, 0.000, 0.000, 15:28:45.289
178, -2543.96, -2242.85, -2042.22, -1952.34, 0.000, 0.000, 0.000, 15:28:45.290
179, -2571.92, -2279.00, -2067.21, -1984.97, 0.000, 0.000, 0.000, 15:28:45.290
180, -2571.44, -2278.29, -2061.85, -1981.02, 0.000, 0.000, 0.000, 15:28:45.290
181, -2545.97, -2251.43, -2041.92, -1945.89, 0.000, 0.000, 0.000, 15:28:45.314
182, -2544.09, -2244.60, -2032.47, -1954.73, 0.000, 0.000, 0.000, 15:28:45.325
183, -2577.55, -2287.49, -2071.46, -1987.41, 0.000, 0.000, 0.000, 15:28:45.325
184, -2576.92, -2286.93, -2065.23, -1982.91, 0.000, 0.000, 0.000, 15:28:45.325
185, -2551.46, -2255.45, -2047.28, -1959.18, 0.000, 0.000, 0.000, 15:28:45.325
186, -2557.42, -2272.30, -2049.27, -1968.33, 0.000, 0.000, 0.000, 15:28:45.326
187, -2570.99, -2287.10, -2066.22, -1986.79, 0.000, 0.000, 0.000, 15:28:45.326
188, -2573.56, -2287.38, -2066.57, -1992.46, 0.000, 0.000, 0.000, 15:28:45.326
189, -2547.56, -2257.56, -2048.07, -1961.47, 0.000, 0.000, 0.000, 15:28:45.391
190, -2521.91, -2235.38, -2018.50, -1951.06, 0.000, 0.000, 0.000, 15:28:45.392
191, -2561.57, -2262.52, -2064.21, -1979.85, 0.000, 0.000, 0.000, 15:28:45.392
192, -2556.49, -2275.69, -2046.26, -1987.23, 0.000, 0.000, 0.000, 15:28:45.393
193, -2546.51, -2253.94, -2053.90, -1953.21, 0.000, 0.000, 0.000, 15:28:45.393
194, -2529.58, -2245.00, -2024.49, -1951.03, 0.000, 0.000, 0.000, 15:28:45.393
195, -2564.01, -2275.96, -2068.86, -1993.27, 0.000, 0.000, 0.000, 15:28:45.393
196, -2563.85, -2273.75, -2059.05, -1982.30, 0.000, 0.000, 0.000, 15:28:45.393
197, -2539.48, -2254.91, -2035.97, -1952.08, 0.000, 0.000, 0.000, 15:28:45.394
198, -2533.49, -2239.96, -2027.63, -1953.88, 0.000, 0.000, 0.000, 15:28:45.394
199, -2574.39, -2282.57, -2067.41, -1993.23, 0.000, 0.000, 0.000, 15:28:45.394
200, -2573.06, -2280.63, -2067.75, -1986.21, 0.000, 0.000, 0.000, 15:28:45.394
0, -2553.50, -2252.11, -2040.05, -1957.04, 0.000, 0.000, 0.000, 15:28:45.394
1, -2544.38, -2244.65, -2040.42, -1951.63, 0.000, 0.000, 0.000, 15:28:45.395
2, -2572.92, -2273.47, -2066.59, -1981.27, 0.000, 0.000, 0.000, 15:28:45.395
3, -2573.67, -2281.08, -2065.74, -1983.09, 0.000, 0.000, 0.000, 15:28:45.395
4, -2538.29, -2244.70, -2035.41, -1939.49, 0.000, 0.000, 0.000, 15:28:45.395
5, -2539.72, -2246.07, -2025.73, -1961.76, 0.000, 0.000, 0.000, 15:28:45.396
6, -2566.07, -2277.86, -2064.28, -1982.14, 0.000, 0.000, 0.000, 15:28:45.396
7, -2570.67, -2270.21, -2061.68, -1987.53, 0.000, 0.000, 0.000, 15:28:45.453
8, -2542.83, -2251.43, -2036.28, -1963.45, 0.000, 0.000, 0.000, 15:28:45.453
9, -2529.45, -2241.89, -2015.97, -1953.25, 0.000, 0.000, 0.000, 15:28:45.454
10, -2562.79, -2275.13, -2056.08, -1986.82, 0.000, 0.000, 0.000, 15:28:45.454
11, -2574.53, -2287.12, -2065.47, -1985.52, 0.000, 0.000, 0.000, 15:28:45.454
12, -2552.73, -2261.51, -2048.88, -1965.38, 0.000, 0.000, 0.000, 15:28:45.455
13, -2542.40, -2246.16, -2036.01, -1959.82, 0.000, 0.000, 0.000, 15:28:45.455
14, -2572.92, -2290.08, -2066.61, -1997.66, 0.000, 0.000, 0.000, 15:28:45.455
15, -2572.79, -2278.75, -2068.82, -1987.53, 0.000, 0.000, 0.000, 15:28:45.455
16, -2538.02, -2244.59, -2028.86, -1948.41, 0.000, 0.000, 0.000, 15:28:45.455
17, -2535.87, -2233.05, -2026.85, -1938.55, 0.000, 0.000, 0.000, 15:28:45.456
18, -2566.28, -2278.27, -2066.21, -1966.04, 0.000, 0.000, 0.000, 15:28:45.456
19, -2575.35, -2282.17, -2066.05, -1994.61, 0.000, 0.000, 0.000, 15:28:45.469
20, -2555.07, -2258.75, -2050.26, -1974.85, 0.000, 0.000, 0.000, 15:28:45.469
21, -2537.97, -2260.16, -2027.81, -1953.83, 0.000, 0.000, 0.000, 15:28:45.479
22, -2572.18, -2278.29, -2065.32, -1984.85, 0.000, 0.000, 0.000, 15:28:45.480
23, -2572.32, -2269.43, -2064.50, -1982.01, 0.000, 0.000, 0.000, 15:28:45.480
24, -2553.35, -2273.85, -2046.46, -1970.27, 0.000, 0.000, 0.000, 15:28:45.480
25, -2533.79, -2237.04, -2028.61, -1946.00, 0.000, 0.000, 0.000, 15:28:45.518
26, -2571.17, -2277.25, -2070.35, -1982.68, 0.000, 0.000, 0.000, 15:28:45.525
27, -2569.12, -2272.46, -2070.07, -1977.70, 0.000, 0.000, 0.000, 15:28:45.525
28, -2558.02, -2256.07, -2052.53, -1969.45, 0.000, 0.000, 0.000, 15:28:45.526
29, -2544.19, -2241.89, -2034.38, -1955.37, 0.000, 0.000, 0.000, 15:28:45.554
30, -2571.03, -2281.41, -2067.94, -1987.41, 0.000, 0.000, 0.000, 15:28:45.554
31, -2569.56, -2274.54, -2058.32, -1968.17, 0.000, 0.000, 0.000, 15:28:45.554
32, -2558.47, -2270.03, -2059.34, -1978.13, 0.000, 0.000, 0.000, 15:28:45.554
33, -2534.37, -2239.80, -2026.81, -1944.40, 0.000, 0.000, 0.000, 15:28:45.555
34, -2568.72, -2275.91, -2071.63, -1980.51, 0.000, 0.000, 0.000, 15:28:45.555
35, -2574.13, -2287.71, -2073.60, -1986.22, 0.000, 0.000, 0.000, 15:28:45.555
36, -2549.90, -2262.96, -2044.91, -1950.29, 0.000, 0.000, 0.000, 15:28:45.555
37, -2530.56, -2242.20, -2018.50, -1937.18, 0.000, 0.000, 0.000, 15:28:45.555
38, -2567.63, -2280.55, -2054.77, -1982.01, 0.000, 0.000, 0.000, 15:28:45.556
39, -2566.07, -2280.13, -2063.31, -1972.16, 0.000, 0.000, 0.000, 15:28:45.615
40, -2557.08, -2271.07, -2054.10, -1971.20, 0.000, 0.000, 0.000, 15:28:45.615
41, -2542.52, -2248.54, -2031.93, -1949.78, 0.000, 0.000, 0.000, 15:28:45.620
42, -2580.82, -2289.00, -2063.69, -1991.46, 0.000, 0.000, 0.000, 15:28:45.621
43, -2580.76, -2284.13, -2075.97, -1985.09, 0.000, 0.000, 0.000, 15:28:45.621
44, -2546.70, -2254.31, -2037.15, -1947.08, 0.000, 0.000, 0.000, 15:28:45.621
45, -2543.66, -2244.67, -2034.68, -1950.65, 0.000, 0.000, 0.000, 15:28:45.622
46, -2575.53, -2292.98, -2067.99, -1986.22, 0.000, 0.000, 0.000, 15:28:45.622
47, -2574.49, -2280.99, -2067.35, -1979.32, 0.000, 0.000, 0.000, 15:28:45.622
48, -2552.27, -2259.89, -2045.71, -1959.17, 0.000, 0.000, 0.000, 15:28:45.622
49, -2529.44, -2234.53, -2022.13, -1932.14, 0.000, 0.000, 0.000, 15:28:45.622
50, -2557.21, -2277.11, -2055.32, -1980.47, 0.000, 0.000, 0.000, 15:28:45.623
51, -2571.21, -2271.18, -2056.82, -1973.04, 0.000, 0.000, 0.000, 15:28:45.740
52, -2546.97, -2251.83, -2033.52, -1967.04, 0.000, 0.000, 0.000, 15:28:45.740
53, -2527.65, -2234.21, -2017.50, -1940.25, 0.000, 0.000, 0.000, 15:28:45.740
54, -2558.50, -2274.90, -2053.70, -1975.10, 0.000, 0.000, 0.000, 15:28:45.741
55, -2563.19, -2275.88, -2059.13, -1980.95, 0.000, 0.000, 0.000, 15:28:45.741
56, -2554.97, -2266.47, -2046.30, -1967.02, 0.000, 0.000, 0.000, 15:28:45.741
57, -2523.51, -2234.70, -2014.63, -1931.11, 0.000, 0.000, 0.000, 15:28:45.741
58, -2563.10, -2265.16, -2062.77, -1975.50, 0.000, 0.000, 0.000, 15:28:45.744
59, -2576.28, -2293.22, -2076.02, -1992.55, 0.000, 0.000, 0.000, 15:28:45.744
60, -2549.96, -2266.88, -2048.08, -1973.98, 0.000, 0.000, 0.000, 15:28:45.744
61, -2528.49, -2244.26, -2019.61, -1944.36, 0.000, 0.000, 0.000, 15:28:45.744
62, -2561.79, -2283.18, -2054.68, -1978.19, 0.000, 0.000, 0.000, 15:28:45.745
63, -2579.71, -2293.08, -2076.01, -1999.04, 0.000, 0.000, 0.000, 15:28:45.745
64, -2555.57, -2263.57, -2049.71, -1971.28, 0.000, 0.000, 0.000, 15:28:45.745
65, -2534.56, -2249.66, -2026.03, -1947.85, 0.000, 0.000, 0.000, 15:28:45.745
66, -2567.21, -2282.49, -2058.91, -1975.28, 0.000, 0.000, 0.000, 15:28:45.746
67, -2573.73, -2275.23, -2065.52, -1982.46, 0.000, 0.000, 0.000, 15:28:45.746
68, -2548.57, -2254.92, -2041.82, -1961.24, 0.000, 0.000, 0.000, 15:28:45.746
69, -2527.81, -2233.05, -2016.79, -1935.08, 0.000, 0.000, 0.000, 15:28:45.746
70, -2551.82, -2251.20, -2049.81, -1947.92, 0.000, 0.000, 0.000, 15:28:45.746
71, -2572.26, -2270.08, -2069.02, -1983.24, 0.000, 0.000, 0.000, 15:28:45.747
72, -2550.14, -2252.30, -2051.49, -1970.13, 0.000, 0.000, 0.000, 15:28:45.747
73, -2532.46, -2233.39, -2025.96, -1943.11, 0.000, 0.000, 0.000, 15:28:45.747
74, -2558.36, -2256.87, -2053.92, -1959.00, 0.000, 0.000, 0.000, 15:28:45.747
75, -2564.51, -2259.49, -2055.09, -1965.42, 0.000, 0.000, 0.000, 15:28:45.793
76, -2549.06, -2261.61, -2041.68, -1964.96, 0.000, 0.000, 0.000, 15:28:45.793
77, -2532.50, -2237.00, -2028.21, -1945.78, 0.000, 0.000, 0.000, 15:28:45.793
78, -2550.89, -2275.22, -2057.62, -1989.81, 0.000, 0.000, 0.000, 15:28:45.794
79, -2573.08, -2285.69, -2061.66, -1990.89, 0.000, 0.000, 0.000, 15:28:45.794
80, -2556.28, -2264.82, -2056.15, -1970.59, 0.000, 0.000, 0.000, 15:28:45.794
81, -2530.61, -2236.41, -2020.50, -1945.38, 0.000, 0.000, 0.000, 15:28:45.794
82, -2567.26, -2276.08, -2059.35, -1971.51, 0.000, 0.000, 0.000, 15:28:45.794
83, -2576.92, -2289.45, -2068.39, -2005.80, 0.000, 0.000, 0.000, 15:28:45.795
84, -2553.95, -2267.44, -2047.72, -1973.02, 0.000, 0.000, 0.000, 15:28:45.795
85, -2540.84, -2259.60, -2036.99, -1962.43, 0.000, 0.000, 0.000, 15:28:45.795
86, -2563.57, -2278.77, -2057.98, -1977.41, 0.000, 0.000, 0.000, 15:28:45.795
87, -2570.39, -2275.54, -2052.59, -1972.76, 0.000, 0.000, 0.000, 15:28:45.818
88, -2588.08, -2290.35, -2077.12, -1993.09, 0.000, 0.000, 0.000, 15:28:45.818
89, -2556.97, -2250.86, -2042.89, -1961.18, 0.000, 0.000, 0.000, 15:28:45.823
90, -2574.61, -2276.39, -2066.44, -1970.19, 0.000, 0.000, 0.000, 15:28:45.823
91, -2584.90, -2286.19, -2077.14, -1997.14, 0.000, 0.000, 0.000, 15:28:45.875
92, -2559.15, -2266.52, -2051.81, -1970.81, 0.000, 0.000, 0.000, 15:28:45.876
93, -2537.12, -2242.62, -2025.53, -1952.48, 0.000, 0.000, 0.000, 15:28:45.876
94, -2561.50, -2274.21, -2065.35, -1981.62, 0.000, 0.000, 0.000, 15:28:45.876
95, -2567.02, -2277.46, -2057.00, -1964.85, 0.000, 0.000, 0.000, 15:28:45.876
96, -2549.90, -2256.23, -2045.78, -1971.48, 0.000, 0.000, 0.000, 15:28:45.877
97, -2532.16, -2238.94, -2029.54, -1942.71, 0.000, 0.000, 0.000, 15:28:45.877
98, -2564.09, -2276.57, -2059.33, -1990.12, 0.000, 0.000, 0.000, 15:28:45.877
99, -2570.37, -2281.04, -2063.55, -1993.91, 0.000, 0.000, 0.000, 15:28:45.877
100, -2547.17, -2261.13, -2040.25, -1969.90, 0.000, 0.000, 0.000, 15:28:45.878
101, -2533.29, -2251.30, -2025.97, -1947.13, 0.000, 0.000, 0.000, 15:28:45.879
102, -2560.64, -2285.03, -2057.54, -1989.74, 0.000, 0.000, 0.000, 15:28:45.879
103, -2584.17, -2304.54, -2076.86, -1999.12, 0.000, 0.000, 0.000, 15:28:45.893
104, -2555.68, -2267.52, -2056.58, -1971.10, 0.000, 0.000, 0.000, 15:28:45.894
105, -2532.09, -2243.16, -2030.67, -1943.48, 0.000, 0.000, 0.000, 15:28:45.911
106, -2561.86, -2267.88, -2053.12, -1971.83, 0.000, 0.000, 0.000, 15:28:45.912
107, -2579.26, -2275.34, -2083.06, -1984.00, 0.000, 0.000, 0.000, 15:28:45.913
108, -2559.33, -2278.86, -2065.49, -1966.67, 0.000, 0.000, 0.000, 15:28:45.913
109, -2529.91, -2243.32, -2030.17, -1948.78, 0.000, 0.000, 0.000, 15:28:45.930
110, -2554.74, -2268.82, -2061.14, -1969.35, 0.000, 0.000, 0.000, 15:28:45.930
111, -2588.05, -2296.86, -2083.90, -1994.50, 0.000, 0.000, 0.000, 15:28:45.930
112, -2558.50, -2278.13, -2043.76, -1960.47, 0.000, 0.000, 0.000, 15:28:45.931
113, -2541.21, -2255.06, -2032.21, -1955.67, 0.000, 0.000, 0.000, 15:28:45.931
114, -2564.16, -2281.28, -2053.37, -1984.07, 0.000, 0.000, 0.000, 15:28:45.931
115, -2586.19, -2295.79, -2069.48, -1991.17, 0.000, 0.000, 0.000, 15:28:45.945
116, -2551.60, -2271.16, -2036.31, -1961.24, 0.000, 0.000, 0.000, 15:28:45.945
117, -2523.86, -2242.93, -2010.20, -1939.48, 0.000, 0.000, 0.000, 15:28:45.990
118, -2561.31, -2269.83, -2042.50, -1977.09, 0.000, 0.000, 0.000, 15:28:45.991
119, -2567.32, -2284.10, -2047.13, -1969.87, 0.000, 0.000, 0.000, 15:28:45.996
120, -2565.83, -2264.60, -2068.05, -1969.85, 0.000, 0.000, 0.000, 15:28:45.997
121, -2542.08, -2244.46, -2038.98, -1963.63, 0.000, 0.000, 0.000, 15:28:45.997
122, -2559.63, -2263.69, -2063.95, -1981.12, 0.000, 0.000, 0.000, 15:28:45.997
123, -2572.21, -2280.78, -2075.44, -1998.73, 0.000, 0.000, 0.000, 15:28:45.997
124, -2557.70, -2264.35, -2057.31, -1981.48, 0.000, 0.000, 0.000, 15:28:45.998
125, -2539.51, -2250.14, -2046.65, -1972.77, 0.000, 0.000, 0.000, 15:28:45.998
126, -2557.78, -2273.53, -2068.43, -1986.49, 0.000, 0.000, 0.000, 15:28:45.998
127, -2575.19, -2281.33, -2075.91, -1997.62, 0.000, 0.000, 0.000, 15:28:46.041
128, -2553.97, -2260.60, -2045.74, -1962.45, 0.000, 0.000, 0.000, 15:28:46.041
129, -2527.39, -2233.79, -2015.37, -1935.35, 0.000, 0.000, 0.000, 15:28:46.041
130, -2551.93, -2258.72, -2034.82, -1954.89, 0.000, 0.000, 0.000, 15:28:46.041
131, -2575.39, -2287.68, -2060.47, -1981.61, 0.000, 0.000, 0.000, 15:28:46.042
132, -2550.22, -2266.97, -2037.14, -1948.75, 0.000, 0.000, 0.000, 15:28:46.042
133, -2540.32, -2253.91, -2022.19, -1941.34, 0.000, 0.000, 0.000, 15:28:46.042
134, -2560.27, -2263.14, -2043.05, -1944.30, 0.000, 0.000, 0.000, 15:28:46.042
135, -2588.84, -2305.62, -2081.90, -2012.33, 0.000, 0.000, 0.000, 15:28:46.083
136, -2570.49, -2281.97, -2062.36, -1987.32, 0.000, 0.000, 0.000, 15:28:46.083
137, -2542.56, -2259.65, -2036.07, -1954.24, 0.000, 0.000, 0.000, 15:28:46.084
138, -2549.61, -2259.45, -2057.60, -1964.09, 0.000, 0.000, 0.000, 15:28:46.084
139, -2580.63, -2280.92, -2084.34, -1991.78, 0.000, 0.000, 0.000, 15:28:46.085
140, -2557.89, -2259.34, -2056.16, -1967.95, 0.000, 0.000, 0.000, 15:28:46.085
141, -2535.48, -2227.60, -2035.02, -1931.93, 0.000, 0.000, 0.000, 15:28:46.086
142, -2549.24, -2259.25, -2049.73, -1955.15, 0.000, 0.000, 0.000, 15:28:46.086
143, -2568.10, -2268.03, -2057.87, -1972.56, 0.000, 0.000, 0.000, 15:28:46.086
144, -2553.01, -2241.62, -2048.12, -1953.16, 0.000, 0.000, 0.000, 15:28:46.087
145, -2526.23, -2230.51, -2022.52, -1930.83, 0.000, 0.000, 0.000, 15:28:46.094
146, -2551.92, -2267.97, -2047.28, -1965.79, 0.000, 0.000, 0.000, 15:28:46.095
147, -2567.60, -2281.86, -2059.25, -1965.05, 0.000, 0.000, 0.000, 15:28:46.113
148, -2561.85, -2280.76, -2049.20, -1994.51, 0.000, 0.000, 0.000, 15:28:46.114
149, -2542.99, -2260.99, -2025.60, -1962.94, 0.000, 0.000, 0.000, 15:28:46.114
150, -2565.09, -2274.03, -2056.06, -1974.13, 0.000, 0.000, 0.000, 15:28:46.114
151, -2594.02, -2312.19, -2078.81, -2006.87, 0.000, 0.000, 0.000, 15:28:46.139
152, -2576.04, -2303.10, -2064.71, -1991.98, 0.000, 0.000, 0.000, 15:28:46.139
153, -2551.13, -2271.11, -2043.02, -1968.00, 0.000, 0.000, 0.000, 15:28:46.154
154, -2567.44, -2281.41, -2062.30, -1975.16, 0.000, 0.000, 0.000, 15:28:46.154
155, -2588.17, -2304.29, -2073.07, -2003.90, 0.000, 0.000, 0.000, 15:28:46.155
156, -2564.16, -2268.29, -2060.92, -1974.90, 0.000, 0.000, 0.000, 15:28:46.155
157, -2533.56, -2234.56, -2034.77, -1947.44, 0.000, 0.000, 0.000, 15:28:46.156
158, -2543.85, -2243.75, -2042.22, -1958.92, 0.000, 0.000, 0.000, 15:28:46.156
159, -2563.78, -2267.61, -2063.03, -1983.39, 0.000, 0.000, 0.000, 15:28:46.253
160, -2554.59, -2253.57, -2050.18, -1956.93, 0.000, 0.000, 0.000, 15:28:46.254
161, -2533.04, -2244.74, -2034.02, -1948.30, 0.000, 0.000, 0.000, 15:28:46.254
162, -2548.64, -2263.29, -2048.75, -1968.36, 0.000, 0.000, 0.000, 15:28:46.254
163, -2578.28, -2283.42, -2075.07, -1991.11, 0.000, 0.000, 0.000, 15:28:46.254
164, -2563.42, -2262.13, -2048.05, -1966.13, 0.000, 0.000, 0.000, 15:28:46.255
165, -2547.12, -2254.32, -2033.89, -1960.72, 0.000, 0.000, 0.000, 15:28:46.255
166, -2558.03, -2250.25, -2056.41, -1954.51, 0.000, 0.000, 0.000, 15:28:46.255
167, -2596.59, -2304.89, -2079.37, -2004.69, 0.000, 0.000, 0.000, 15:28:46.255
168, -2571.33, -2278.78, -2061.81, -1985.77, 0.000, 0.000, 0.000, 15:28:46.256
169, -2545.22, -2257.38, -2041.73, -1961.78, 0.000, 0.000, 0.000, 15:28:46.256
170, -2554.34, -2263.81, -2048.40, -1969.78, 0.000, 0.000, 0.000, 15:28:46.256
171, -2571.07, -2276.38, -2068.83, -1980.67, 0.000, 0.000, 0.000, 15:28:46.256
172, -2550.35, -2261.24, -2052.56, -1971.91, 0.000, 0.000, 0.000, 15:28:46.257
173, -2530.61, -2232.79, -2028.02, -1949.88, 0.000, 0.000, 0.000, 15:28:46.257
174, -2550.22, -2255.73, -2055.93, -1974.24, 0.000, 0.000, 0.000, 15:28:46.257
175, -2560.54, -2267.15, -2069.81, -1986.63, 0.000, 0.000, 0.000, 15:28:46.257
176, -2549.93, -2250.31, -2053.70, -1969.86, 0.000, 0.000, 0.000, 15:28:46.257
177, -2530.77, -2240.16, -2037.20, -1957.63, 0.000, 0.000, 0.000, 15:28:46.353
178, -2538.87, -2239.44, -2042.79, -1963.96, 0.000, 0.000, 0.000, 15:28:46.356
179, -2551.46, -2257.27, -2061.00, -1978.05, 0.000, 0.000, 0.000, 15:28:46.356
180, -2542.99, -2234.96, -2051.24, -1956.99, 0.000, 0.000, 0.000, 15:28:46.357
181, -2515.75, -2227.62, -2018.90, -1950.34, 0.000, 0.000, 0.000, 15:28:46.357
182, -2527.00, -2233.05, -2036.13, -1956.71, 0.000, 0.000, 0.000, 15:28:46.357
183, -2555.43, -2265.38, -2065.82, -1973.49, 0.000, 0.000, 0.000, 15:28:46.357
184, -2540.77, -2239.55, -2041.07, -1958.98, 0.000, 0.000, 0.000, 15:28:46.358
185, -2519.86, -2226.31, -2022.30, -1939.60, 0.000, 0.000, 0.000, 15:28:46.358
186, -2535.41, -2240.69, -2031.04, -1960.50, 0.000, 0.000, 0.000, 15:28:46.358
187, -2567.91, -2279.79, -2065.00, -2001.91, 0.000, 0.000, 0.000, 15:28:46.358
188, -2546.86, -2260.15, -2049.65, -1979.33, 0.000, 0.000, 0.000, 15:28:46.358
189, -2518.51, -2232.09, -2012.89, -1950.88, 0.000, 0.000, 0.000, 15:28:46.359
190, -2534.09, -2256.89, -2045.29, -1969.43, 0.000, 0.000, 0.000, 15:28:46.359
191, -2557.82, -2274.71, -2067.91, -1992.29, 0.000, 0.000, 0.000, 15:28:46.359
192, -2549.54, -2261.75, -2061.44, -1985.74, 0.000, 0.000, 0.000, 15:28:46.359
193, -2521.66, -2231.31, -2030.20, -1946.33, 0.000, 0.000, 0.000, 15:28:46.360
194, -2543.30, -2251.09, -2048.14, -1954.68, 0.000, 0.000, 0.000, 15:28:46.360
195, -2578.04, -2275.21, -2077.12, -1986.41, 0.000, 0.000, 0.000, 15:28:46.360
196, -2560.50, -2264.28, -2052.77, -1957.26, 0.000, 0.000, 0.000, 15:28:46.360
197, -2548.28, -2254.57, -2035.31, -1964.17, 0.000, 0.000, 0.000, 15:28:46.360
198, -2550.36, -2259.77, -2042.12, -1958.18, 0.000, 0.000, 0.000, 15:28:46.361
199, -2585.59, -2297.69, -2076.96, -1996.55, 0.000, 0.000, 0.000, 15:28:46.411
200, -2560.67, -2272.40, -2044.02, -1963.56, 0.000, 0.000, 0.000, 15:28:46.412
0, -2544.61, -2253.34, -2032.69, -1953.04, 0.000, 0.000, 0.000, 15:28:46.412
1, -2557.70, -2270.61, -2030.42, -1954.87, 0.000, 0.000, 0.000, 15:28:46.412
2, -2593.61, -2307.85, -2069.90, -1997.21, 0.000, 0.000, 0.000, 15:28:46.412
3, -2579.44, -2285.71, -2058.13, -1975.42, 0.000, 0.000, 0.000, 15:28:46.413
4, -2564.09, -2271.12, -2048.65, -1964.34, 0.000, 0.000, 0.000, 15:28:46.413
5, -2577.64, -2284.13, -2058.21, -1977.78, 0.000, 0.000, 0.000, 15:28:46.413
6, -2595.09, -2306.18, -2074.93, -1989.43, 0.000, 0.000, 0.000, 15:28:46.414
7, -2575.30, -2279.73, -2065.54, -1986.79, 0.000, 0.000, 0.000, 15:28:46.414
8, -2561.20, -2256.98, -2046.77, -1973.49, 0.000, 0.000, 0.000, 15:28:46.414
9, -2560.11, -2264.32, -2043.62, -1969.26, 0.000, 0.000, 0.000, 15:28:46.424
10, -2588.69, -2295.48, -2076.18, -2012.19, 0.000, 0.000, 0.000, 15:28:46.424
11, -2570.56, -2266.55, -2052.69, -1978.97, 0.000, 0.000, 0.000, 15:28:46.425
12, -2540.01, -2249.03, -2025.49, -1953.36, 0.000, 0.000, 0.000, 15:28:46.425
13, -2544.36, -2256.08, -2029.25, -1956.38, 0.000, 0.000, 0.000, 15:28:46.632
14, -2578.29, -2292.62, -2073.17, -1992.07, 0.000, 0.000, 0.000, 15:28:46.633
15, -2564.02, -2282.00, -2048.55, -1968.13, 0.000, 0.000, 0.000, 15:28:46.645
16, -2541.90, -2251.33, -2035.94, -1955.22, 0.000, 0.000, 0.000, 15:28:46.646
17, -2563.69, -2278.82, -2054.25, -1978.38, 0.000, 0.000, 0.000, 15:28:46.646
18, -2582.00, -2305.15, -2069.38, -1993.81, 0.000, 0.000, 0.000, 15:28:46.646
19, -2563.56, -2273.91, -2053.51, -1969.76, 0.000, 0.000, 0.000, 15:28:46.646
20, -2542.12, -2257.03, -2029.57, -1954.49, 0.000, 0.000, 0.000, 15:28:46.647
21, -2552.48, -2264.06, -2041.41, -1970.31, 0.000, 0.000, 0.000, 15:28:46.647
22, -2577.51, -2301.47, -2063.65, -2003.37, 0.000, 0.000, 0.000, 15:28:46.647
23, -2554.85, -2268.47, -2043.66, -1970.57, 0.000, 0.000, 0.000, 15:28:46.647
24, -2535.64, -2258.42, -2023.04, -1943.36, 0.000, 0.000, 0.000, 15:28:46.648
25, -2547.58, -2259.62, -2040.05, -1970.43, 0.000, 0.000, 0.000, 15:28:46.648
26, -2585.72, -2298.50, -2078.33, -1999.29, 0.000, 0.000, 0.000, 15:28:46.648
27, -2575.76, -2284.97, -2068.40, -1988.97, 0.000, 0.000, 0.000, 15:28:46.648
28, -2551.34, -2258.88, -2033.51, -1951.14, 0.000, 0.000, 0.000, 15:28:46.648
29, -2571.81, -2262.42, -2067.58, -1971.75, 0.000, 0.000, 0.000, 15:28:46.649
30, -2596.32, -2298.66, -2083.20, -1992.87, 0.000, 0.000, 0.000, 15:28:46.649
31, -2584.52, -2276.13, -2065.85, -1979.11, 0.000, 0.000, 0.000, 15:28:46.649
32, -2558.34, -2254.90, -2048.20, -1951.79, 0.000, 0.000, 0.000, 15:28:46.649
33, -2562.42, -2260.48, -2054.41, -1954.59, 0.000, 0.000, 0.000, 15:28:46.649
34, -2588.76, -2287.60, -2069.70, -1978.50, 0.000, 0.000, 0.000, 15:28:46.650
35, -2577.95, -2275.36, -2064.78, -1969.45, 0.000, 0.000, 0.000, 15:28:46.650
36, -2552.55, -2237.85, -2039.92, -1938.19, 0.000, 0.000, 0.000, 15:28:46.650
37, -2563.88, -2255.79, -2045.65, -1964.83, 0.000, 0.000, 0.000, 15:28:46.650
38, -2579.38, -2265.91, -2062.11, -1976.37, 0.000, 0.000, 0.000, 15:28:46.651
39, -2569.08, -2273.09, -2062.26, -1978.79, 0.000, 0.000, 0.000, 15:28:46.651
40, -2542.49, -2241.52, -2021.37, -1948.10, 0.000, 0.000, 0.000, 15:28:46.651
41, -2546.04, -2243.64, -2040.69, -1951.47, 0.000, 0.000, 0.000, 15:28:46.651
42, -2570.82, -2278.16, -2067.55, -1987.59, 0.000, 0.000, 0.000, 15:28:46.652
43, -2565.40, -2275.11, -2045.50, -1973.40, 0.000, 0.000, 0.000, 15:28:46.652
44, -2536.59, -2252.09, -2025.48, -1936.50, 0.000, 0.000, 0.000, 15:28:46.652
45, -2557.55, -2269.62, -2039.19, -1960.82, 0.000, 0.000, 0.000, 15:28:46.652
46, -2581.12, -2298.74, -2070.24, -1998.36, 0.000, 0.000, 0.000, 15:28:46.652
47, -2579.57, -2293.56, -2068.36, -1988.46, 0.000, 0.000, 0.000, 15:28:46.653
48, -2540.88, -2256.12, -2030.86, -1958.37, 0.000, 0.000, 0.000, 15:28:46.653
49, -2543.71, -2255.87, -2040.96, -1956.14, 0.000, 0.000, 0.000, 15:28:46.653
50, -2569.50, -2287.07, -2057.90, -1992.66, 0.000, 0.000, 0.000, 15:28:46.653
51, -2565.73, -2292.93, -2043.35, -1982.86, 0.000, 0.000, 0.000, 15:28:46.653
52, -2537.14, -2260.89, -2024.05, -1951.26, 0.000, 0.000, 0.000, 15:28:46.693
53, -2543.71, -2269.60, -2042.72, -1968.45, 0.000, 0.000, 0.000, 15:28:46.694
54, -2573.67, -2300.36, -2063.64, -1991.43, 0.000, 0.000, 0.000, 15:28:46.694
55, -2562.24, -2281.86, -2057.06, -1983.41, 0.000, 0.000, 0.000, 15:28:46.694
56, -2545.44, -2265.79, -2046.60, -1965.11, 0.000, 0.000, 0.000, 15:28:46.694
57, -2535.63, -2252.32, -2033.60, -1965.96, 0.000, 0.000, 0.000, 15:28:46.694
58, -2565.68, -2283.52, -2057.22, -1983.27, 0.000, 0.000, 0.000, 15:28:46.695
59, -2567.88, -2267.70, -2050.95, -1977.23, 0.000, 0.000, 0.000, 15:28:46.695
60, -2538.78, -2248.83, -2031.69, -1952.62, 0.000, 0.000, 0.000, 15:28:46.695
61, -2532.88, -2249.42, -2022.96, -1935.01, 0.000, 0.000, 0.000, 15:28:46.764
62, -2567.86, -2281.53, -2054.87, -2000.70, 0.000, 0.000, 0.000, 15:28:46.764
63, -2560.39, -2283.06, -2054.01, -1983.10, 0.000, 0.000, 0.000, 15:28:46.769
64, -2545.08, -2263.19, -2038.33, -1967.02, 0.000, 0.000, 0.000, 15:28:46.771
65, -2540.25, -2260.15, -2025.48, -1953.13, 0.000, 0.000, 0.000, 15:28:46.772
66, -2574.57, -2300.86, -2065.67, -1998.76, 0.000, 0.000, 0.000, 15:28:46.772
67, -2563.31, -2282.31, -2046.96, -1980.40, 0.000, 0.000, 0.000, 15:28:46.772
68, -2528.78, -2251.70, -2014.18, -1948.57, 0.000, 0.000, 0.000, 15:28:46.772
69, -2538.41, -2250.62, -2026.72, -1949.74, 0.000, 0.000, 0.000, 15:28:46.773
70, -2577.17, -2299.68, -2058.29, -1992.13, 0.000, 0.000, 0.000, 15:28:46.773
71, -2570.16, -2283.27, -2055.89, -1960.86, 0.000, 0.000, 0.000, 15:28:46.773
72, -2555.73, -2266.58, -2043.72, -1972.10, 0.000, 0.000, 0.000, 15:28:46.773
73, -2546.11, -2263.20, -2040.24, -1975.58, 0.000, 0.000, 0.000, 15:28:46.775
74, -2574.81, -2288.19, -2076.98, -2007.18, 0.000, 0.000, 0.000, 15:28:46.775
75, -2566.76, -2281.77, -2059.98, -1984.19, 0.000, 0.000, 0.000, 15:28:46.776
76, -2547.28, -2250.53, -2045.11, -1956.54, 0.000, 0.000, 0.000, 15:28:46.776
77, -2547.78, -2244.04, -2039.10, -1948.48, 0.000, 0.000, 0.000, 15:28:46.776
78, -2569.20, -2277.17, -2064.52, -1976.84, 0.000, 0.000, 0.000, 15:28:46.777
79, -2575.28, -2273.98, -2066.22, -1985.84, 0.000, 0.000, 0.000, 15:28:46.777
80, -2547.01, -2254.52, -2043.41, -1947.24, 0.000, 0.000, 0.000, 15:28:46.777
81, -2550.51, -2252.52, -2042.33, -1951.61, 0.000, 0.000, 0.000, 15:28:46.845
82, -2580.51, -2283.65, -2082.69, -2009.56, 0.000, 0.000, 0.000, 15:28:46.845
83, -2566.47, -2270.33, -2057.82, -1986.83, 0.000, 0.000, 0.000, 15:28:46.846
84, -2535.01, -2239.62, -2048.11, -1947.14, 0.000, 0.000, 0.000, 15:28:46.846
85, -2540.38, -2248.71, -2045.01, -1956.62, 0.000, 0.000, 0.000, 15:28:46.846
86, -2572.40, -2286.03, -2072.10, -1997.56, 0.000, 0.000, 0.000, 15:28:46.846
87, -2566.66, -2273.62, -2067.58, -1971.94, 0.000, 0.000, 0.000, 15:28:46.846
88, -2549.29, -2258.82, -2051.34, -1966.86, 0.000, 0.000, 0.000, 15:28:46.847
89, -2542.71, -2246.83, -2041.77, -1961.44, 0.000, 0.000, 0.000, 15:28:46.847
90, -2573.77, -2281.43, -2062.19, -1988.29, 0.000, 0.000, 0.000, 15:28:46.847
91, -2572.33, -2276.22, -2056.57, -1966.16, 0.000, 0.000, 0.000, 15:28:46.847
92, -2552.71, -2259.61, -2048.80, -1977.33, 0.000, 0.000, 0.000, 15:28:46.847
93, -2544.05, -2244.54, -2034.41, -1949.59, 0.000, 0.000, 0.000, 15:28:46.847
94, -2575.27, -2279.19, -2073.85, -1992.13, 0.000, 0.000, 0.000, 15:28:46.848
95, -2575.14, -2283.21, -2077.17, -1995.20, 0.000, 0.000, 0.000, 15:28:46.848
96, -2556.87, -2260.62, -2060.80, -1962.04, 0.000, 0.000, 0.000, 15:28:46.848
97, -2547.71, -2248.49, -2046.91, -1960.30, 0.000, 0.000, 0.000, 15:28:46.961
98, -2580.08, -2287.13, -2076.99, -1986.24, 0.000, 0.000, 0.000, 15:28:46.962
99, -2572.98, -2276.71, -2064.49, -1962.73, 0.000, 0.000, 0.000, 15:28:46.962
100, -2555.16, -2267.16, -2046.11, -1978.10, 0.000, 0.000, 0.000, 15:28:46.962
101, -2551.08, -2262.37, -2039.29, -1966.67, 0.000, 0.000, 0.000, 15:28:46.962
102, -2585.63, -2293.40, -2082.25, -2000.63, 0.000, 0.000, 0.000, 15:28:46.963
103, -2576.52, -2274.28, -2059.48, -1975.05, 0.000, 0.000, 0.000, 15:28:46.967
104, -2556.71, -2275.91, -2037.90, -1975.24, 0.000, 0.000, 0.000, 15:28:46.967
105, -2539.17, -2247.55, -2025.95, -1948.01, 0.000, 0.000, 0.000, 15:28:46.967
106, -2580.56, -2289.45, -2074.23, -1989.29, 0.000, 0.000, 0.000, 15:28:46.967
107, -2571.11, -2282.28, -2058.94, -1984.00, 0.000, 0.000, 0.000, 15:28:46.970
108, -2539.48, -2246.36, -2029.55, -1948.43, 0.000, 0.000, 0.000, 15:28:46.971
109, -2533.10, -2243.61, -2022.80, -1934.25, 0.000, 0.000, 0.000, 15:28:46.971
110, -2569.68, -2284.02, -2064.21, -1995.93, 0.000, 0.000, 0.000, 15:28:46.971
111, -2580.55, -2281.00, -2067.70, -1991.16, 0.000, 0.000, 0.000, 15:28:46.971
112, -2548.82, -2249.65, -2043.83, -1960.87, 0.000, 0.000, 0.000, 15:28:46.971
113, -2540.40, -2243.77, -2039.66, -1954.05, 0.000, 0.000, 0.000, 15:28:46.971
114, -2573.70, -2282.38, -2064.47, -1994.69, 0.000, 0.000, 0.000, 15:28:46.971
115, -2571.56, -2283.49, -2059.84, -1987.01, 0.000, 0.000, 0.000, 15:28:46.972
116, -2543.42, -2262.28, -2045.14, -1967.37, 0.000, 0.000, 0.000, 15:28:46.972
117, -2526.92, -2236.36, -2023.47, -1940.45, 0.000, 0.000, 0.000, 15:28:46.974
118, -2570.21, -2282.91, -2059.33, -1980.38, 0.000, 0.000, 0.000, 15:28:46.974
119, -2567.01, -2265.36, -2059.11, -1976.32, 0.000, 0.000, 0.000, 15:28:46.975
120, -2539.03, -2251.73, -2024.79, -1948.01, 0.000, 0.000, 0.000, 15:28:46.975
121, -2540.15, -2244.97, -2032.42, -1954.60, 0.000, 0.000, 0.000, 15:28:47.008
122, -2570.96, -2274.35, -2062.53, -1982.09, 0.000, 0.000, 0.000, 15:28:47.008
123, -2573.22, -2274.84, -2067.99, -1991.56, 0.000, 0.000, 0.000, 15:28:47.010
124, -2541.37, -2254.65, -2032.27, -1958.87, 0.000, 0.000, 0.000, 15:28:47.010
125, -2536.72, -2259.09, -2025.41, -1954.20, 0.000, 0.000, 0.000, 15:28:47.010
126, -2575.12, -2293.90, -2074.99, -1997.69, 0.000, 0.000, 0.000, 15:28:47.010
127, -2557.98, -2248.26, -2047.83, -1934.82, 0.000, 0.000, 0.000, 15:28:47.011
128, -2573.52, -2284.29, -2069.27, -2004.05, 0.000, 0.000, 0.000, 15:28:47.011
129, -2549.27, -2239.76, -2040.82, -1963.30, 0.000, 0.000, 0.000, 15:28:47.083
130, -2576.21, -2279.99, -2073.06, -1988.46, 0.000, 0.000, 0.000, 15:28:47.084
131, -2575.87, -2285.24, -2066.90, -1990.83, 0.000, 0.000, 0.000, 15:28:47.084
132, -2554.12, -2255.31, -2044.00, -1961.95, 0.000, 0.000, 0.000, 15:28:47.084
133, -2543.70, -2250.08, -2033.11, -1951.16, 0.000, 0.000, 0.000, 15:28:47.084
134, -2571.67, -2286.42, -2067.37, -1981.56, 0.000, 0.000, 0.000, 15:28:47.085
135, -2576.38, -2284.30, -2055.83, -1990.83, 0.000, 0.000, 0.000, 15:28:47.087
136, -2547.26, -2250.85, -2032.65, -1958.71, 0.000, 0.000, 0.000, 15:28:47.087
137, -2529.17, -2234.89, -2029.68, -1935.58, 0.000, 0.000, 0.000, 15:28:47.088
138, -2560.62, -2273.12, -2054.33, -1975.62, 0.000, 0.000, 0.000, 15:28:47.088
139, -2581.41, -2294.67, -2057.51, -2005.00, 0.000, 0.000, 0.000, 15:28:47.088
140, -2550.41, -2259.33, -2037.63, -1963.74, 0.000, 0.000, 0.000, 15:28:47.088
141, -2543.97, -2253.94, -2036.25, -1959.29, 0.000, 0.000, 0.000, 15:28:47.088
142, -2560.26, -2272.57, -2053.66, -1962.30, 0.000, 0.000, 0.000, 15:28:47.088
143, -2574.01, -2286.19, -2058.60, -1996.43, 0.000, 0.000, 0.000, 15:28:47.089
144, -2559.29, -2276.11, -2049.08, -1976.37, 0.000, 0.000, 0.000, 15:28:47.089
145, -2542.31, -2248.30, -2032.28, -1944.42, 0.000, 0.000, 0.000, 15:28:47.099
146, -2564.73, -2274.37, -2051.76, -1963.79, 0.000, 0.000, 0.000, 15:28:47.099
147, -2589.54, -2294.47, -2068.22, -2005.66, 0.000, 0.000, 0.000, 15:28:47.177
148, -2566.05, -2274.97, -2065.80, -1998.01, 0.000, 0.000, 0.000, 15:28:47.177
149, -2532.83, -2234.25, -2022.64, -1946.42, 0.000, 0.000, 0.000, 15:28:47.181
150, -2565.31, -2269.30, -2059.92, -1964.29, 0.000, 0.000, 0.000, 15:28:47.182
151, -2581.23, -2295.11, -2066.82, -2004.03, 0.000, 0.000, 0.000, 15:28:47.182
152, -2551.96, -2248.35, -2043.31, -1958.39, 0.000, 0.000, 0.000, 15:28:47.182
153, -2543.80, -2254.54, -2035.98, -1956.60, 0.000, 0.000, 0.000, 15:28:47.182
154, -2580.97, -2291.15, -2072.81, -1981.43, 0.000, 0.000, 0.000, 15:28:47.182
155, -2580.98, -2278.79, -2067.67, -1988.24, 0.000, 0.000, 0.000, 15:28:47.182
156, -2536.15, -2238.34, -2028.60, -1939.93, 0.000, 0.000, 0.000, 15:28:47.182
157, -2547.30, -2247.69, -2034.92, -1954.37, 0.000, 0.000, 0.000, 15:28:47.183
158, -2564.79, -2273.92, -2060.58, -1961.97, 0.000, 0.000, 0.000, 15:28:47.183
159, -2590.73, -2299.61, -2080.66, -2005.45, 0.000, 0.000, 0.000, 15:28:47.183
160, -2549.68, -2258.46, -2039.47, -1961.30, 0.000, 0.000, 0.000, 15:28:47.183
161, -2537.34, -2226.02, -2023.08, -1930.45, 0.000, 0.000, 0.000, 15:28:47.184
162, -2574.38, -2273.76, -2062.88, -1989.63, 0.000, 0.000, 0.000, 15:28:47.184
163, -2571.94, -2266.67, -2065.92, -1960.94, 0.000, 0.000, 0.000, 15:28:47.210
164, -2565.08, -2277.14, -2061.02, -1991.92, 0.000, 0.000, 0.000, 15:28:47.210
165, -2543.44, -2252.67, -2037.31, -1964.35, 0.000, 0.000, 0.000, 15:28:47.210
166, -2569.97, -2278.23, -2064.26, -1974.04, 0.000, 0.000, 0.000, 15:28:47.210
167, -2582.85, -2292.08, -2075.45, -1999.27, 0.000, 0.000, 0.000, 15:28:47.210
168, -2569.93, -2265.33, -2058.34, -1972.02, 0.000, 0.000, 0.000, 15:28:47.211
169, -2538.53, -2238.51, -2017.60, -1931.76, 0.000, 0.000, 0.000, 15:28:47.235
170, -2575.67, -2279.01, -2069.39, -1984.43, 0.000, 0.000, 0.000, 15:28:47.235
171, -2581.97, -2274.29, -2074.10, -1972.91, 0.000, 0.000, 0.000, 15:28:47.235
172, -2559.16, -2269.29, -2047.96, -1974.84, 0.000, 0.000, 0.000, 15:28:47.235
173, -2546.04, -2252.11, -2040.52, -1954.89, 0.000, 0.000, 0.000, 15:28:47.235
174, -2566.57, -2267.24, -2058.30, -1949.85, 0.000, 0.000, 0.000, 15:28:47.235
175, -2584.27, -2293.99, -2074.20, -2012.90, 0.000, 0.000, 0.000, 15:28:47.283
176, -2554.76, -2263.17, -2051.55, -1973.90, 0.000, 0.000, 0.000, 15:28:47.283
177, -2541.56, -2252.91, -2031.74, -1966.02, 0.000, 0.000, 0.000, 15:28:47.283
178, -2571.22, -2283.21, -2061.46, -1992.19, 0.000, 0.000, 0.000, 15:28:47.283
179, -2572.41, -2286.96, -2063.81, -1993.32, 0.000, 0.000, 0.000, 15:28:47.284
180, -2536.25, -2248.56, -2025.69, -1949.56, 0.000, 0.000, 0.000, 15:28:47.284
181, -2538.60, -2241.28, -2023.86, -1941.97, 0.000, 0.000, 0.000, 15:28:47.366
182, -2542.95, -2249.47, -2030.07, -1930.00, 0.000, 0.000, 0.000, 15:28:47.368
183, -2566.34, -2295.57, -2063.91, -1994.96, 0.000, 0.000, 0.000, 15:28:47.396
184, -2533.97, -2235.82, -2017.49, -1945.07, 0.000, 0.000, 0.000, 15:28:47.397
185, -2549.94, -2256.73, -2046.80, -1953.80, 0.000, 0.000, 0.000, 15:28:47.397
186, -2583.69, -2298.96, -2076.05, -2018.26, 0.000, 0.000, 0.000, 15:28:47.397
187, -2596.59, -2295.80, -2076.88, -1995.72, 0.000, 0.000, 0.000, 15:28:47.418
188, -2560.69, -2270.46, -2047.72, -1963.02, 0.000, 0.000, 0.000, 15:28:47.418
189, -2543.46, -2247.05, -2025.81, -1943.18, 0.000, 0.000, 0.000, 15:28:47.418
190, -2557.33, -2253.36, -2058.90, -1958.75, 0.000, 0.000, 0.000, 15:28:47.419
191, -2566.20, -2263.70, -2061.07, -1962.87, 0.000, 0.000, 0.000, 15:28:47.419
192, -2566.44, -2282.07, -2066.54, -1994.55, 0.000, 0.000, 0.000, 15:28:47.419
193, -2534.21, -2234.59, -2025.30, -1922.27, 0.000, 0.000, 0.000, 15:28:47.449
194, -2576.52, -2280.31, -2075.43, -1993.89, 0.000, 0.000, 0.000, 15:28:47.449
195, -2575.00, -2271.20, -2074.16, -1969.39, 0.000, 0.000, 0.000, 15:28:47.450
196, -2551.20, -2245.75, -2050.00, -1953.76, 0.000, 0.000, 0.000, 15:28:47.450
197, -2552.54, -2279.51, -2037.97, -1981.28, 0.000, 0.000, 0.000, 15:28:47.450
198, -2566.89, -2280.38, -2061.35, -2003.15, 0.000, 0.000, 0.000, 15:28:47.450
199, -2580.86, -2276.85, -2066.18, -1993.20, 0.000, 0.000, 0.000, 15:28:47.472
200, -2568.03, -2271.81, -2054.82, -1987.24, 0.000, 0.000, 0.000, 15:28:47.472
0, -2527.25, -2216.30, -2012.93, -1937.86, 0.000, 0.000, 0.000, 15:28:47.472
1, -2569.94, -2302.94, -2063.72, -2004.23, 0.000, 0.000, 0.000, 15:28:47.472
2, -2564.48, -2278.90, -2050.75, -1965.49, 0.000, 0.000, 0.000, 15:28:47.472
3, -2548.65, -2260.12, -2034.42, -1948.67, 0.000, 0.000, 0.000, 15:28:47.516
4, -2536.14, -2239.91, -2022.99, -1951.95, 0.000, 0.000, 0.000, 15:28:47.516
5, -2562.97, -2283.86, -2051.81, -1985.87, 0.000, 0.000, 0.000, 15:28:47.521
6, -2574.52, -2284.13, -2061.27, -1966.91, 0.000, 0.000, 0.000, 15:28:47.521
7, -2561.29, -2274.77, -2047.89, -1976.81, 0.000, 0.000, 0.000, 15:28:47.521
8, -2533.12, -2231.72, -2027.16, -1932.77, 0.000, 0.000, 0.000, 15:28:47.521
9, -2558.75, -2264.27, -2048.72, -1980.76, 0.000, 0.000, 0.000, 15:28:47.541
10, -2589.19, -2302.82, -2081.57, -2016.24, 0.000, 0.000, 0.000, 15:28:47.542
11, -2547.85, -2246.34, -2036.70, -1940.98, 0.000, 0.000, 0.000, 15:28:47.546
12, -2527.96, -2239.56, -2018.28, -1945.35, 0.000, 0.000, 0.000, 15:28:47.546
13, -2563.30, -2276.27, -2059.07, -1992.82, 0.000, 0.000, 0.000, 15:28:47.546
14, -2571.20, -2283.46, -2071.47, -1994.37, 0.000, 0.000, 0.000, 15:28:47.546
15, -2546.11, -2237.23, -2037.59, -1950.94, 0.000, 0.000, 0.000, 15:28:47.639
16, -2542.40, -2252.54, -2028.40, -1964.00, 0.000, 0.000, 0.000, 15:28:47.639
17, -2561.48, -2278.69, -2049.61, -1978.96, 0.000, 0.000, 0.000, 15:28:47.649
18, -2585.12, -2294.67, -2076.09, -2003.95, 0.000, 0.000, 0.000, 15:28:47.649
19, -2555.08, -2264.08, -2049.06, -1963.67, 0.000, 0.000, 0.000, 15:28:47.649
20, -2549.67, -2250.68, -2037.16, -1953.54, 0.000, 0.000, 0.000, 15:28:47.656
21, -2563.17, -2273.10, -2054.92, -1970.93, 0.000, 0.000, 0.000, 15:28:47.672
22, -2571.50, -2278.68, -2069.22, -1964.13, 0.000, 0.000, 0.000, 15:28:47.672
23, -2559.26, -2286.63, -2056.80, -1957.16, 0.000, 0.000, 0.000, 15:28:47.672
24, -2555.44, -2271.09, -2043.26, -1991.77, 0.000, 0.000, 0.000, 15:28:47.672
25, -2559.85, -2273.24, -2056.02, -1984.81, 0.000, 0.000, 0.000, 15:28:47.673
26, -2580.14, -2279.71, -2078.41, -2003.18, 0.000, 0.000, 0.000, 15:28:47.673
27, -2556.92, -2253.98, -2051.17, -1975.47, 0.000, 0.000, 0.000, 15:28:47.722
28, -2538.00, -2252.35, -2035.48, -1961.56, 0.000, 0.000, 0.000, 15:28:47.723
29, -2566.35, -2283.80, -2064.27, -1997.50, 0.000, 0.000, 0.000, 15:28:47.723
30, -2567.06, -2271.43, -2056.15, -1979.54, 0.000, 0.000, 0.000, 15:28:47.723
31, -2540.32, -2236.01, -2027.86, -1937.06, 0.000, 0.000, 0.000, 15:28:47.723
32, -2536.86, -2251.83, -2027.56, -1941.36, 0.000, 0.000, 0.000, 15:28:47.723
33, -2568.21, -2274.85, -2058.53, -1988.70, 0.000, 0.000, 0.000, 15:28:47.793
34, -2570.51, -2279.09, -2057.20, -1978.82, 0.000, 0.000, 0.000, 15:28:47.793
35, -2566.83, -2281.11, -2054.41, -1990.06, 0.000, 0.000, 0.000, 15:28:47.797
36, -2532.60, -2245.58, -2026.14, -1961.87, 0.000, 0.000, 0.000, 15:28:47.797
37, -2559.39, -2270.01, -2050.38, -1975.65, 0.000, 0.000, 0.000, 15:28:47.797
38, -2575.58, -2284.71, -2062.03, -1987.13, 0.000, 0.000, 0.000, 15:28:47.797
39, -2558.34, -2263.69, -2051.84, -1971.48, 0.000, 0.000, 0.000, 15:28:47.835
40, -2540.56, -2238.33, -2032.85, -1953.32, 0.000, 0.000, 0.000, 15:28:47.835
41, -2564.62, -2262.41, -2049.31, -1962.60, 0.000, 0.000, 0.000, 15:28:47.835
42, -2587.07, -2287.64, -2069.64, -1984.09, 0.000, 0.000, 0.000, 15:28:47.835
43, -2558.63, -2255.41, -2046.48, -1928.04, 0.000, 0.000, 0.000, 15:28:47.835
44, -2550.16, -2251.55, -2038.46, -1975.08, 0.000, 0.000, 0.000, 15:28:47.836
45, -2576.69, -2289.46, -2067.09, -2005.93, 0.000, 0.000, 0.000, 15:28:47.883
46, -2579.47, -2268.77, -2080.12, -1991.35, 0.000, 0.000, 0.000, 15:28:47.883
47, -2554.85, -2270.93, -2047.40, -1967.69, 0.000, 0.000, 0.000, 15:28:47.883
48, -2540.92, -2253.53, -2037.48, -1970.79, 0.000, 0.000, 0.000, 15:28:47.883
49, -2558.78, -2261.28, -2057.33, -1972.10, 0.000, 0.000, 0.000, 15:28:47.883
50, -2569.92, -2276.06, -2066.40, -1987.73, 0.000, 0.000, 0.000, 15:28:47.884
51, -2556.76, -2268.25, -2057.07, -1971.52, 0.000, 0.000, 0.000, 15:28:47.912
52, -2533.41, -2240.45, -2023.79, -1956.27, 0.000, 0.000, 0.000, 15:28:47.913
53, -2550.04, -2256.43, -2049.52, -1972.04, 0.000, 0.000, 0.000, 15:28:47.913
54, -2559.76, -2272.69, -2055.77, -1973.30, 0.000, 0.000, 0.000, 15:28:47.913
55, -2551.91, -2268.62, -2044.63, -1989.16, 0.000, 0.000, 0.000, 15:28:47.913
56, -2522.64, -2229.00, -2027.75, -1946.56, 0.000, 0.000, 0.000, 15:28:47.913
57, -2560.84, -2273.83, -2056.38, -1986.23, 0.000, 0.000, 0.000, 15:28:47.946
58, -2576.14, -2283.68, -2073.94, -1998.51, 0.000, 0.000, 0.000, 15:28:47.947
59, -2569.25, -2276.63, -2068.25, -1989.93, 0.000, 0.000, 0.000, 15:28:47.947
60, -2541.28, -2244.13, -2033.80, -1958.18, 0.000, 0.000, 0.000, 15:28:47.947
61, -2563.87, -2271.41, -2062.41, -1991.72, 0.000, 0.000, 0.000, 15:28:47.947
62, -2576.44, -2287.52, -2073.53, -2006.64, 0.000, 0.000, 0.000, 15:28:47.947
63, -2556.80, -2268.64, -2050.08, -1990.15, 0.000, 0.000, 0.000, 15:28:47.958
64, -2531.52, -2221.55, -2022.54, -1934.30, 0.000, 0.000, 0.000, 15:28:47.959
65, -2562.46, -2268.49, -2047.02, -1983.18, 0.000, 0.000, 0.000, 15:28:47.959
66, -2583.09, -2291.90, -2063.23, -1998.71, 0.000, 0.000, 0.000, 15:28:47.959
67, -2564.96, -2270.48, -2040.71, -1966.68, 0.000, 0.000, 0.000, 15:28:47.959
68, -2548.51, -2245.07, -2030.44, -1941.08, 0.000, 0.000, 0.000, 15:28:47.960
69, -2561.48, -2262.48, -2043.14, -1947.11, 0.000, 0.000, 0.000, 15:28:47.971
70, -2600.97, -2298.50, -2083.90, -2004.85, 0.000, 0.000, 0.000, 15:28:47.971
71, -2580.01, -2291.20, -2060.64, -1986.87, 0.000, 0.000, 0.000, 15:28:47.971
72, -2555.51, -2256.58, -2043.39, -1963.24, 0.000, 0.000, 0.000, 15:28:47.972
73, -2562.83, -2269.78, -2051.26, -1962.25, 0.000, 0.000, 0.000, 15:28:47.972
74, -2585.88, -2295.04, -2071.24, -1990.52, 0.000, 0.000, 0.000, 15:28:48.006
75, -2565.99, -2275.16, -2053.47, -1980.72, 0.000, 0.000, 0.000, 15:28:48.006
76, -2538.76, -2245.88, -2027.80, -1951.83, 0.000, 0.000, 0.000, 15:28:48.006
77, -2547.08, -2255.87, -2035.92, -1953.40, 0.000, 0.000, 0.000, 15:28:48.006
78, -2581.08, -2295.84, -2066.73, -2002.57, 0.000, 0.000, 0.000, 15:28:48.006
79, -2560.88, -2269.52, -2048.05, -1995.03, 0.000, 0.000, 0.000, 15:28:48.007
80, -2535.46, -2249.28, -2023.08, -1963.23, 0.000, 0.000, 0.000, 15:28:48.007
81, -2550.90, -2259.34, -2043.29, -1983.34, 0.000, 0.000, 0.000, 15:28:48.039
82, -2567.44, -2276.53, -2053.05, -1987.46, 0.000, 0.000, 0.000, 15:28:48.040
83, -2558.27, -2257.38, -2045.94, -1961.89, 0.000, 0.000, 0.000, 15:28:48.040
84, -2527.30, -2231.89, -2015.44, -1922.36, 0.000, 0.000, 0.000, 15:28:48.040
85, -2557.21, -2260.79, -2045.14, -1953.00, 0.000, 0.000, 0.000, 15:28:48.040
86, -2592.65, -2283.65, -2085.63, -1976.52, 0.000, 0.000, 0.000, 15:28:48.040
87, -2582.93, -2278.76, -2068.56, -1959.58, 0.000, 0.000, 0.000, 15:28:48.073
88, -2559.36, -2264.81, -2047.98, -1949.16, 0.000, 0.000, 0.000, 15:28:48.073
89, -2575.97, -2286.34, -2067.00, -1955.14, 0.000, 0.000, 0.000, 15:28:48.074
90, -2588.12, -2295.44, -2078.77, -1988.70, 0.000, 0.000, 0.000, 15:28:48.074
91, -2574.44, -2284.04, -2064.38, -1972.28, 0.000, 0.000, 0.000, 15:28:48.074
92, -2552.35, -2264.23, -2039.09, -1964.23, 0.000, 0.000, 0.000, 15:28:48.074
93, -2561.07, -2263.91, -2050.13, -1962.48, 0.000, 0.000, 0.000, 15:28:48.085
94, -2575.41, -2284.94, -2065.09, -1977.62, 0.000, 0.000, 0.000, 15:28:48.085
95, -2559.78, -2266.21, -2047.76, -1959.31, 0.000, 0.000, 0.000, 15:28:48.085
96, -2531.35, -2247.95, -2030.06, -1959.74, 0.000, 0.000, 0.000, 15:28:48.085
97, -2542.44, -2250.44, -2036.99, -1959.19, 0.000, 0.000, 0.000, 15:28:48.085
98, -2578.78, -2271.48, -2067.84, -1983.21, 0.000, 0.000, 0.000, 15:28:48.086
99, -2559.38, -2275.97, -2050.53, -1979.29, 0.000, 0.000, 0.000, 15:28:48.102
100, -2536.31, -2243.36, -2031.44, -1955.02, 0.000, 0.000, 0.000, 15:28:48.104
101, -2554.41, -2256.43, -2042.86, -1966.61, 0.000, 0.000, 0.000, 15:28:48.104
102, -2582.87, -2304.65, -2074.78, -2006.46, 0.000, 0.000, 0.000, 15:28:48.104
103, -2568.67, -2280.12, -2063.58, -1985.91, 0.000, 0.000, 0.000, 15:28:48.104
104, -2552.53, -2257.24, -2044.16, -1979.70, 0.000, 0.000, 0.000, 15:28:48.105
105, -2560.25, -2279.24, -2051.50, -1985.27, 0.000, 0.000, 0.000, 15:28:48.122
106, -2583.56, -2300.69, -2080.27, -2002.64, 0.000, 0.000, 0.000, 15:28:48.122
107, -2567.56, -2284.28, -2063.25, -1983.79, 0.000, 0.000, 0.000, 15:28:48.123
108, -2547.47, -2264.55, -2043.47, -1962.42, 0.000, 0.000, 0.000, 15:28:48.123
109, -2560.84, -2272.02, -2058.49, -1976.30, 0.000, 0.000, 0.000, 15:28:48.124
110, -2575.55, -2277.27, -2078.22, -1985.84, 0.000, 0.000, 0.000, 15:28:48.124
111, -2562.22, -2276.68, -2057.55, -1976.12, 0.000, 0.000, 0.000, 15:28:48.125
112, -2537.52, -2251.66, -2034.34, -1966.78, 0.000, 0.000, 0.000, 15:28:48.125
113, -2545.61, -2263.17, -2037.97, -1959.68, 0.000, 0.000, 0.000, 15:28:48.131
114, -2581.78, -2299.19, -2070.00, -2011.90, 0.000, 0.000, 0.000, 15:28:48.132
115, -2562.42, -2279.78, -2058.35, -1982.80, 0.000, 0.000, 0.000, 15:28:48.133
116, -2529.81, -2224.94, -2025.97, -1948.52, 0.000, 0.000, 0.000, 15:28:48.133
117, -2564.63, -2279.50, -2058.29, -1980.65, 0.000, 0.000, 0.000, 15:28:48.133
118, -2578.25, -2264.16, -2064.22, -1963.77, 0.000, 0.000, 0.000, 15:28:48.133
119, -2578.21, -2290.16, -2068.13, -1998.58, 0.000, 0.000, 0.000, 15:28:48.137
120, -2546.39, -2244.09, -2029.70, -1950.51, 0.000, 0.000, 0.000, 15:28:48.137
121, -2564.64, -2249.45, -2053.05, -1958.31, 0.000, 0.000, 0.000, 15:28:48.138
122, -2598.13, -2304.80, -2087.10, -2006.79, 0.000, 0.000, 0.000, 15:28:48.138
123, -2570.79, -2263.71, -2052.59, -1971.08, 0.000, 0.000, 0.000, 15:28:48.138
124, -2554.77, -2261.92, -2048.36, -1963.16, 0.000, 0.000, 0.000, 15:28:48.138
125, -2563.74, -2277.58, -2061.06, -1967.07, 0.000, 0.000, 0.000, 15:28:48.164
126, -2585.02, -2287.32, -2077.72, -1977.31, 0.000, 0.000, 0.000, 15:28:48.164
127, -2577.08, -2285.71, -2075.32, -1970.78, 0.000, 0.000, 0.000, 15:28:48.164
128, -2546.17, -2248.15, -2039.38, -1953.42, 0.000, 0.000, 0.000, 15:28:48.165
129, -2547.75, -2237.56, -2037.27, -1942.13, 0.000, 0.000, 0.000, 15:28:48.165
130, -2575.47, -2275.57, -2068.14, -1969.19, 0.000, 0.000, 0.000, 15:28:48.165
131, -2562.97, -2253.16, -2054.82, -1967.15, 0.000, 0.000, 0.000, 15:28:48.168
132, -2542.78, -2248.25, -2028.47, -1956.08, 0.000, 0.000, 0.000, 15:28:48.168
133, -2551.73, -2255.68, -2040.30, -1951.67, 0.000, 0.000, 0.000, 15:28:48.168
134, -2575.37, -2286.53, -2071.92, -2002.16, 0.000, 0.000, 0.000, 15:28:48.168
135, -2569.24, -2276.67, -2059.99, -1981.27, 0.000, 0.000, 0.000, 15:28:48.169
136, -2531.92, -2242.04, -2019.81, -1948.45, 0.000, 0.000, 0.000, 15:28:48.169
137, -2535.29, -2234.17, -2029.56, -1938.65, 0.000, 0.000, 0.000, 15:28:48.177
138, -2575.01, -2288.51, -2067.42, -1976.97, 0.000, 0.000, 0.000, 15:28:48.178
139, -2561.13, -2274.28, -2047.52, -1987.59, 0.000, 0.000, 0.000, 15:28:48.178
140, -2542.15, -2240.55, -2036.44, -1953.12, 0.000, 0.000, 0.000, 15:28:48.178
141, -2556.03, -2248.67, -2050.05, -1957.00, 0.000, 0.000, 0.000, 15:28:48.179
142, -2579.92, -2290.21, -2070.56, -1975.56, 0.000, 0.000, 0.000, 15:28:48.179
143, -2582.83, -2287.48, -2069.11, -2001.22, 0.000, 0.000, 0.000, 15:28:48.193
144, -2540.24, -2253.03, -2033.60, -1941.94, 0.000, 0.000, 0.000, 15:28:48.193
145, -2561.10, -2272.49, -2047.84, -1981.31, 0.000, 0.000, 0.000, 15:28:48.194
146, -2588.75, -2295.87, -2087.09, -1992.37, 0.000, 0.000, 0.000, 15:28:48.201
147, -2579.08, -2285.91, -2070.35, -1991.21, 0.000, 0.000, 0.000, 15:28:48.201
148, -2548.37, -2240.62, -2042.25, -1947.11, 0.000, 0.000, 0.000, 15:28:48.216
149, -2557.97, -2264.34, -2046.83, -1964.86, 0.000, 0.000, 0.000, 15:28:48.309
150, -2577.01, -2287.32, -2069.72, -1981.60, 0.000, 0.000, 0.000, 15:28:48.309
151, -2574.50, -2279.60, -2065.86, -1976.76, 0.000, 0.000, 0.000, 15:28:48.310
152, -2556.44, -2253.09, -2046.89, -1962.90, 0.000, 0.000, 0.000, 15:28:48.310
153, -2539.28, -2228.46, -2037.84, -1938.79, 0.000, 0.000, 0.000, 15:28:48.311
154, -2583.96, -2301.37, -2071.35, -1997.59, 0.000, 0.000, 0.000, 15:28:48.311
155, -2585.09, -2293.90, -2081.32, -2000.32, 0.000, 0.000, 0.000, 15:28:48.322
156, -2557.33, -2268.02, -2046.16, -1971.98, 0.000, 0.000, 0.000, 15:28:48.322
157, -2554.80, -2264.74, -2040.88, -1954.83, 0.000, 0.000, 0.000, 15:28:48.322
158, -2596.61, -2306.80, -2082.87, -2011.33, 0.000, 0.000, 0.000, 15:28:48.322
159, -2570.02, -2262.70, -2055.32, -1969.33, 0.000, 0.000, 0.000, 15:28:48.322
160, -2558.31, -2259.07, -2042.57, -1951.51, 0.000, 0.000, 0.000, 15:28:48.323
161, -2547.70, -2250.50, -2031.55, -1957.02, 0.000, 0.000, 0.000, 15:28:48.323
162, -2587.14, -2293.74, -2072.17, -1988.31, 0.000, 0.000, 0.000, 15:28:48.323
163, -2571.58, -2268.10, -2055.00, -1981.42, 0.000, 0.000, 0.000, 15:28:48.323
164, -2544.45, -2260.95, -2021.80, -1965.24, 0.000, 0.000, 0.000, 15:28:48.323
165, -2547.18, -2260.62, -2043.37, -1964.86, 0.000, 0.000, 0.000, 15:28:48.323
166, -2572.39, -2285.97, -2068.40, -1978.73, 0.000, 0.000, 0.000, 15:28:48.324
167, -2556.06, -2277.22, -2058.01, -1992.52, 0.000, 0.000, 0.000, 15:28:48.324
168, -2539.60, -2240.85, -2033.65, -1953.57, 0.000, 0.000, 0.000, 15:28:48.324
169, -2535.45, -2239.53, -2039.09, -1960.77, 0.000, 0.000, 0.000, 15:28:48.324
170, -2561.64, -2278.79, -2062.74, -1968.98, 0.000, 0.000, 0.000, 15:28:48.324
171, -2564.77, -2285.75, -2058.07, -1983.73, 0.000, 0.000, 0.000, 15:28:48.342
172, -2547.44, -2263.77, -2038.40, -1974.31, 0.000, 0.000, 0.000, 15:28:48.343
173, -2538.84, -2236.25, -2028.68, -1960.62, 0.000, 0.000, 0.000, 15:28:48.343
174, -2571.75, -2284.53, -2071.74, -1986.05, 0.000, 0.000, 0.000, 15:28:48.343
175, -2570.66, -2288.93, -2066.67, -1996.73, 0.000, 0.000, 0.000, 15:28:48.343
176, -2538.44, -2257.67, -2041.64, -1972.59, 0.000, 0.000, 0.000, 15:28:48.344
177, -2544.53, -2246.08, -2038.08, -1957.14, 0.000, 0.000, 0.000, 15:28:48.346
178, -2562.33, -2264.36, -2061.20, -1974.35, 0.000, 0.000, 0.000, 15:28:48.346
179, -2565.70, -2272.94, -2052.36, -1954.82, 0.000, 0.000, 0.000, 15:28:48.346
180, -2528.02, -2226.32, -2019.52, -1921.26, 0.000, 0.000, 0.000, 15:28:48.346
181, -2547.31, -2266.21, -2042.57, -1980.33, 0.000, 0.000, 0.000, 15:28:48.346
182, -2581.68, -2287.28, -2080.08, -1995.00, 0.000, 0.000, 0.000, 15:28:48.347
183, -2584.39, -2294.78, -2071.68, -2019.56, 0.000, 0.000, 0.000, 15:28:48.371
184, -2539.15, -2231.86, -2034.62, -1939.94, 0.000, 0.000, 0.000, 15:28:48.371
185, -2547.87, -2253.68, -2035.50, -1960.00, 0.000, 0.000, 0.000, 15:28:48.372
186, -2571.72, -2265.87, -2061.90, -1970.56, 0.000, 0.000, 0.000, 15:28:48.372
187, -2576.14, -2289.65, -2068.74, -1985.04, 0.000, 0.000, 0.000, 15:28:48.373
188, -2555.83, -2259.26, -2044.08, -1948.09, 0.000, 0.000, 0.000, 15:28:48.373
189, -2541.37, -2242.72, -2032.23, -1940.81, 0.000, 0.000, 0.000, 15:28:48.387
190, -2581.04, -2297.13, -2081.05, -2024.64, 0.000, 0.000, 0.000, 15:28:48.388
191, -2582.07, -2279.63, -2079.90, -1989.10, 0.000, 0.000, 0.000, 15:28:48.388
192, -2546.39, -2262.25, -2040.22, -1966.18, 0.000, 0.000, 0.000, 15:28:48.389
193, -2548.83, -2268.13, -2045.78, -1958.82, 0.000, 0.000, 0.000, 15:28:48.389
194, -2590.87, -2299.64, -2085.82, -1996.67, 0.000, 0.000, 0.000, 15:28:48.389
195, -2577.51, -2267.71, -2060.06, -1959.85, 0.000, 0.000, 0.000, 15:28:48.399
196, -2549.78, -2245.88, -2037.22, -1929.44, 0.000, 0.000, 0.000, 15:28:48.400
197, -2551.23, -2262.98, -2047.86, -1958.83, 0.000, 0.000, 0.000, 15:28:48.400
198, -2590.87, -2299.42, -2084.05, -2016.88, 0.000, 0.000, 0.000, 15:28:48.400
199, -2581.35, -2298.33, -2071.58, -1994.97, 0.000, 0.000, 0.000, 15:28:48.400
200, -2550.10, -2259.93, -2043.25, -1945.05, 0.000, 0.000, 0.000, 15:28:48.400
0, -2556.37, -2259.21, -2045.21, -1975.55, 0.000, 0.000, 0.000, 15:28:48.404
1, -2576.48, -2280.52, -2062.56, -1998.68, 0.000, 0.000, 0.000, 15:28:48.405
2, -2569.97, -2289.84, -2065.03, -1974.71, 0.000, 0.000, 0.000, 15:28:48.408
3, -2554.58, -2263.54, -2036.53, -1956.48, 0.000, 0.000, 0.000, 15:28:48.408
4, -2535.90, -2254.47, -2028.37, -1968.72, 0.000, 0.000, 0.000, 15:28:48.409
5, -2586.91, -2300.38, -2079.33, -2005.47, 0.000, 0.000, 0.000, 15:28:48.419
6, -2578.67, -2281.29, -2054.87, -1966.48, 0.000, 0.000, 0.000, 15:28:48.420
7, -2556.11, -2256.26, -2041.50, -1977.31, 0.000, 0.000, 0.000, 15:28:48.420
8, -2552.46, -2250.85, -2045.87, -1969.64, 0.000, 0.000, 0.000, 15:28:48.421
9, -2577.63, -2286.77, -2064.47, -1986.82, 0.000, 0.000, 0.000, 15:28:48.435
10, -2571.01, -2275.78, -2053.45, -1984.06, 0.000, 0.000, 0.000, 15:28:48.438
11, -2536.52, -2245.07, -2027.12, -1921.92, 0.000, 0.000, 0.000, 15:28:48.439
12, -2540.70, -2234.03, -2038.52, -1956.52, 0.000, 0.000, 0.000, 15:28:48.440
13, -2581.07, -2303.05, -2082.05, -2012.22, 0.000, 0.000, 0.000, 15:28:48.465
14, -2574.24, -2277.77, -2060.76, -1967.16, 0.000, 0.000, 0.000, 15:28:48.466
15, -2548.63, -2275.81, -2044.45, -1976.49, 0.000, 0.000, 0.000, 15:28:48.467
16, -2549.28, -2256.40, -2047.07, -1972.72, 0.000, 0.000, 0.000, 15:28:48.467
17, -2571.79, -2290.37, -2069.69, -1992.87, 0.000, 0.000, 0.000, 15:28:48.468
18, -2561.18, -2269.52, -2055.83, -1968.17, 0.000, 0.000, 0.000, 15:28:48.481
19, -2564.40, -2275.97, -2055.68, -1982.89, 0.000, 0.000, 0.000, 15:28:48.482
20, -2536.31, -2237.57, -2031.01, -1931.24, 0.000, 0.000, 0.000, 15:28:48.482
21, -2580.51, -2282.14, -2069.55, -1982.34, 0.000, 0.000, 0.000, 15:28:48.558
22, -2588.63, -2309.46, -2075.89, -2006.89, 0.000, 0.000, 0.000, 15:28:48.559
23, -2547.87, -2253.50, -2035.93, -1956.33, 0.000, 0.000, 0.000, 15:28:48.559
24, -2542.48, -2264.94, -2041.31, -1947.49, 0.000, 0.000, 0.000, 15:28:48.559
25, -2583.54, -2297.29, -2084.08, -2012.94, 0.000, 0.000, 0.000, 15:28:48.560
26, -2564.90, -2261.29, -2058.74, -1948.94, 0.000, 0.000, 0.000, 15:28:48.560
27, -2560.42, -2261.65, -2047.42, -1974.80, 0.000, 0.000, 0.000, 15:28:48.635
28, -2546.73, -2246.59, -2044.08, -1961.72, 0.000, 0.000, 0.000, 15:28:48.636
29, -2580.24, -2293.50, -2069.80, -2002.51, 0.000, 0.000, 0.000, 15:28:48.636
30, -2592.08, -2287.27, -2080.94, -1985.41, 0.000, 0.000, 0.000, 15:28:48.636
31, -2563.65, -2267.96, -2054.92, -1996.02, 0.000, 0.000, 0.000, 15:28:48.637
32, -2554.62, -2277.11, -2040.96, -1979.73, 0.000, 0.000, 0.000, 15:28:48.637
33, -2571.13, -2279.12, -2059.96, -1955.44, 0.000, 0.000, 0.000, 15:28:48.652
34, -2571.13, -2264.94, -2059.64, -1978.87, 0.000, 0.000, 0.000, 15:28:48.653
35, -2562.32, -2273.90, -2046.35, -2002.51, 0.000, 0.000, 0.000, 15:28:48.653
36, -2556.53, -2262.35, -2049.14, -1976.00, 0.000, 0.000, 0.000, 15:28:48.653
37, -2580.19, -2290.10, -2071.22, -1996.41, 0.000, 0.000, 0.000, 15:28:48.653
38, -2567.96, -2277.72, -2048.46, -1989.52, 0.000, 0.000, 0.000, 15:28:48.653
39, -2540.69, -2244.26, -2041.47, -1935.42, 0.000, 0.000, 0.000, 15:28:48.657
40, -2533.51, -2244.89, -2037.58, -1962.17, 0.000, 0.000, 0.000, 15:28:48.658
41, -2566.85, -2265.95, -2061.11, -1953.00, 0.000, 0.000, 0.000, 15:28:48.658
42, -2561.29, -2275.67, -2053.32, -1965.65, 0.000, 0.000, 0.000, 15:28:48.658
43, -2544.67, -2257.94, -2039.29, -1979.01, 0.000, 0.000, 0.000, 15:28:48.658
44, -2542.05, -2260.92, -2040.33, -1961.38, 0.000, 0.000, 0.000, 15:28:48.659
45, -2566.72, -2278.55, -2061.59, -1973.00, 0.000, 0.000, 0.000, 15:28:48.669
46, -2575.68, -2285.57, -2074.31, -1995.45, 0.000, 0.000, 0.000, 15:28:48.669
47, -2552.29, -2257.57, -2046.58, -1970.49, 0.000, 0.000, 0.000, 15:28:48.669
48, -2536.00, -2228.24, -2029.29, -1933.25, 0.000, 0.000, 0.000, 15:28:48.670
49, -2570.45, -2282.83, -2053.63, -1994.60, 0.000, 0.000, 0.000, 15:28:48.670
50, -2575.04, -2275.76, -2066.26, -1971.22, 0.000, 0.000, 0.000, 15:28:48.670
51, -2539.84, -2244.40, -2034.02, -1921.06, 0.000, 0.000, 0.000, 15:28:48.678
52, -2546.99, -2250.23, -2032.41, -1956.73, 0.000, 0.000, 0.000, 15:28:48.679
53, -2591.76, -2287.51, -2081.12, -2026.14, 0.000, 0.000, 0.000, 15:28:48.679
54, -2579.82, -2285.23, -2069.29, -1997.66, 0.000, 0.000, 0.000, 15:28:48.679
55, -2552.44, -2263.39, -2043.03, -1969.54, 0.000, 0.000, 0.000, 15:28:48.679
56, -2539.37, -2245.86, -2022.48, -1945.56, 0.000, 0.000, 0.000, 15:28:48.679
57, -2579.40, -2292.18, -2065.61, -1999.13, 0.000, 0.000, 0.000, 15:28:48.683
58, -2572.15, -2277.89, -2063.67, -1966.65, 0.000, 0.000, 0.000, 15:28:48.683
59, -2551.83, -2243.65, -2039.64, -1943.25, 0.000, 0.000, 0.000, 15:28:48.683
60, -2556.66, -2273.63, -2035.41, -1943.35, 0.000, 0.000, 0.000, 15:28:48.683
61, -2595.67, -2305.79, -2084.90, -1995.30, 0.000, 0.000, 0.000, 15:28:48.712
62, -2577.93, -2266.99, -2067.30, -1938.97, 0.000, 0.000, 0.000, 15:28:48.712
63, -2562.69, -2262.13, -2057.38, -1984.16, 0.000, 0.000, 0.000, 15:28:48.713
64, -2565.69, -2274.13, -2057.15, -1992.27, 0.000, 0.000, 0.000, 15:28:48.713
65, -2583.72, -2295.82, -2079.85, -2003.06, 0.000, 0.000, 0.000, 15:28:48.714
66, -2576.24, -2279.69, -2068.09, -1961.47, 0.000, 0.000, 0.000, 15:28:48.726
67, -2558.68, -2271.34, -2053.73, -1985.30, 0.000, 0.000, 0.000, 15:28:48.727
68, -2537.25, -2237.52, -2024.32, -1943.07, 0.000, 0.000, 0.000, 15:28:48.727
69, -2585.57, -2296.67, -2069.80, -2005.39, 0.000, 0.000, 0.000, 15:28:48.737
70, -2565.50, -2266.31, -2043.66, -1962.17, 0.000, 0.000, 0.000, 15:28:48.738
71, -2558.57, -2281.56, -2049.01, -1979.72, 0.000, 0.000, 0.000, 15:28:48.738
72, -2539.98, -2254.79, -2030.36, -1933.76, 0.000, 0.000, 0.000, 15:28:48.738
73, -2572.35, -2280.87, -2067.27, -1986.69, 0.000, 0.000, 0.000, 15:28:48.749
74, -2569.57, -2283.52, -2065.80, -1977.29, 0.000, 0.000, 0.000, 15:28:48.749
75, -2551.00, -2264.25, -2047.17, -1977.28, 0.000, 0.000, 0.000, 15:28:48.784
76, -2539.80, -2251.13, -2043.40, -1966.72, 0.000, 0.000, 0.000, 15:28:48.784
77, -2562.69, -2270.98, -2063.76, -1979.37, 0.000, 0.000, 0.000, 15:28:48.784
78, -2567.02, -2276.33, -2063.49, -1978.93, 0.000, 0.000, 0.000, 15:28:48.785
79, -2539.15, -2257.42, -2038.80, -1970.43, 0.000, 0.000, 0.000, 15:28:48.785
80, -2531.30, -2241.36, -2033.95, -1942.65, 0.000, 0.000, 0.000, 15:28:48.785
81, -2554.89, -2262.38, -2042.76, -1976.26, 0.000, 0.000, 0.000, 15:28:48.797
82, -2569.81, -2272.85, -2073.76, -1956.29, 0.000, 0.000, 0.000, 15:28:48.798
83, -2556.51, -2268.29, -2058.51, -1986.96, 0.000, 0.000, 0.000, 15:28:48.798
84, -2520.29, -2228.13, -2018.81, -1923.68, 0.000, 0.000, 0.000, 15:28:48.798
85, -2562.71, -2281.68, -2055.75, -1994.01, 0.000, 0.000, 0.000, 15:28:48.816
86, -2568.19, -2284.08, -2062.43, -2008.88, 0.000, 0.000, 0.000, 15:28:48.816
87, -2544.40, -2261.19, -2041.81, -1975.27, 0.000, 0.000, 0.000, 15:28:48.832
88, -2544.02, -2256.83, -2037.09, -1961.52, 0.000, 0.000, 0.000, 15:28:48.832
89, -2567.63, -2280.78, -2058.15, -1979.69, 0.000, 0.000, 0.000, 15:28:48.832
90, -2587.83, -2298.87, -2069.94, -2007.09, 0.000, 0.000, 0.000, 15:28:48.833
91, -2553.86, -2266.46, -2043.75, -1969.03, 0.000, 0.000, 0.000, 15:28:48.839
92, -2526.64, -2231.40, -2021.98, -1925.70, 0.000, 0.000, 0.000, 15:28:48.839
93, -2582.61, -2297.91, -2076.55, -2017.52, 0.000, 0.000, 0.000, 15:28:48.864
94, -2575.60, -2285.54, -2070.25, -1994.30, 0.000, 0.000, 0.000, 15:28:48.865
95, -2542.57, -2254.43, -2034.32, -1948.77, 0.000, 0.000, 0.000, 15:28:48.865
96, -2528.31, -2231.24, -2014.98, -1931.65, 0.000, 0.000, 0.000, 15:28:48.866
97, -2570.88, -2283.50, -2061.53, -1981.56, 0.000, 0.000, 0.000, 15:28:48.869
98, -2585.73, -2290.09, -2077.12, -1983.91, 0.000, 0.000, 0.000, 15:28:48.869
99, -2559.13, -2273.01, -2055.78, -2003.13, 0.000, 0.000, 0.000, 15:28:48.888
100, -2539.60, -2249.03, -2035.41, -1954.28, 0.000, 0.000, 0.000, 15:28:48.889
101, -2571.60, -2276.62, -2067.13, -1976.59, 0.000, 0.000, 0.000, 15:28:48.889
102, -2575.37, -2263.66, -2058.76, -1960.11, 0.000, 0.000, 0.000, 15:28:48.889
103, -2554.50, -2272.30, -2054.68, -1968.97, 0.000, 0.000, 0.000, 15:28:48.915
104, -2538.61, -2247.59, -2039.89, -1965.62, 0.000, 0.000, 0.000, 15:28:48.916
105, -2563.07, -2274.15, -2051.55, -1979.88, 0.000, 0.000, 0.000, 15:28:48.916
106, -2574.52, -2279.77, -2063.02, -1982.44, 0.000, 0.000, 0.000, 15:28:48.916
107, -2554.56, -2262.77, -2045.73, -1970.68, 0.000, 0.000, 0.000, 15:28:48.929
108, -2533.85, -2232.58, -2036.93, -1928.73, 0.000, 0.000, 0.000, 15:28:48.929
109, -2572.18, -2269.44, -2066.12, -1968.32, 0.000, 0.000, 0.000, 15:28:48.930
110, -2597.17, -2303.22, -2089.36, -2016.06, 0.000, 0.000, 0.000, 15:28:48.930
111, -2565.55, -2270.60, -2059.19, -1962.82, 0.000, 0.000, 0.000, 15:28:48.948
112, -2534.96, -2227.87, -2034.50, -1922.42, 0.000, 0.000, 0.000, 15:28:48.948
113, -2576.20, -2286.57, -2066.45, -1991.23, 0.000, 0.000, 0.000, 15:28:48.949
114, -2599.31, -2300.86, -2091.36, -2015.23, 0.000, 0.000, 0.000, 15:28:48.949
115, -2551.06, -2266.08, -2042.89, -1964.14, 0.000, 0.000, 0.000, 15:28:48.964
116, -2543.64, -2248.90, -2042.77, -1949.55, 0.000, 0.000, 0.000, 15:28:48.964
117, -2570.92, -2280.22, -2068.05, -1972.82, 0.000, 0.000, 0.000, 15:28:48.979
118, -2589.53, -2300.90, -2078.23, -2000.78, 0.000, 0.000, 0.000, 15:28:48.980
119, -2568.48, -2278.46, -2058.31, -1989.69, 0.000, 0.000, 0.000, 15:28:48.997
120, -2554.24, -2259.86, -2041.74, -1951.93, 0.000, 0.000, 0.000, 15:28:48.998
121, -2581.94, -2277.40, -2073.79, -1988.09, 0.000, 0.000, 0.000, 15:28:48.998
122, -2573.57, -2293.04, -2066.55, -1971.04, 0.000, 0.000, 0.000, 15:28:48.999
123, -2565.04, -2270.98, -2055.79, -1969.63, 0.000, 0.000, 0.000, 15:28:49.018
124, -2536.96, -2245.31, -2037.99, -1955.79, 0.000, 0.000, 0.000, 15:28:49.018
125, -2573.83, -2274.24, -2060.76, -1980.73, 0.000, 0.000, 0.000, 15:28:49.019
126, -2584.72, -2290.87, -2080.73, -2021.46, 0.000, 0.000, 0.000, 15:28:49.019
127, -2558.38, -2273.76, -2062.81, -1983.87, 0.000, 0.000, 0.000, 15:28:49.048
128, -2522.67, -2219.28, -2024.22, -1919.50, 0.000, 0.000, 0.000, 15:28:49.049
129, -2568.54, -2279.14, -2066.72, -1995.80, 0.000, 0.000, 0.000, 15:28:49.059
130, -2585.47, -2288.95, -2081.59, -2000.78, 0.000, 0.000, 0.000, 15:28:49.059
131, -2548.33, -2255.59, -2047.26, -1949.09, 0.000, 0.000, 0.000, 15:28:49.083
132, -2529.99, -2241.71, -2030.37, -1934.49, 0.000, 0.000, 0.000, 15:28:49.084
133, -2572.45, -2282.82, -2076.84, -1987.77, 0.000, 0.000, 0.000, 15:28:49.084
134, -2578.96, -2289.11, -2075.63, -2004.05, 0.000, 0.000, 0.000, 15:28:49.084
135, -2542.31, -2260.60, -2042.48, -1961.40, 0.000, 0.000, 0.000, 15:28:49.085
136, -2526.88, -2243.62, -2026.04, -1947.69, 0.000, 0.000, 0.000, 15:28:49.085
137, -2559.62, -2280.22, -2052.32, -1986.57, 0.000, 0.000, 0.000, 15:28:49.085
138, -2568.51, -2281.68, -2059.50, -1991.05, 0.000, 0.000, 0.000, 15:28:49.086
139, -2559.45, -2269.83, -2046.48, -1962.22, 0.000, 0.000, 0.000, 15:28:49.086
140, -2537.41, -2237.95, -2029.56, -1965.28, 0.000, 0.000, 0.000, 15:28:49.086
141, -2568.44, -2293.40, -2069.51, -1996.26, 0.000, 0.000, 0.000, 15:28:49.099
142, -2579.84, -2292.03, -2073.08, -2000.87, 0.000, 0.000, 0.000, 15:28:49.099
143, -2551.15, -2261.67, -2037.09, -1960.62, 0.000, 0.000, 0.000, 15:28:49.099
144, -2513.79, -2209.95, -1998.19, -1900.58, 0.000, 0.000, 0.000, 15:28:49.099
145, -2574.34, -2292.22, -2063.84, -2000.06, 0.000, 0.000, 0.000, 15:28:49.112
146, -2570.61, -2287.52, -2073.78, -1992.74, 0.000, 0.000, 0.000, 15:28:49.112
147, -2562.23, -2272.74, -2057.96, -1984.40, 0.000, 0.000, 0.000, 15:28:49.128
148, -2529.54, -2230.10, -2023.41, -1940.03, 0.000, 0.000, 0.000, 15:28:49.128
149, -2569.83, -2281.62, -2069.30, -1991.97, 0.000, 0.000, 0.000, 15:28:49.129
150, -2578.48, -2278.17, -2076.77, -1987.94, 0.000, 0.000, 0.000, 15:28:49.129
151, -2560.51, -2279.88, -2053.97, -1962.22, 0.000, 0.000, 0.000, 15:28:49.148
152, -2537.92, -2235.17, -2033.22, -1950.61, 0.000, 0.000, 0.000, 15:28:49.148
153, -2570.53, -2281.31, -2065.20, -1980.77, 0.000, 0.000, 0.000, 15:28:49.162
154, -2584.73, -2288.31, -2070.81, -1994.45, 0.000, 0.000, 0.000, 15:28:49.162
155, -2554.84, -2259.42, -2045.31, -1950.11, 0.000, 0.000, 0.000, 15:28:49.162
156, -2549.92, -2251.69, -2042.69, -1958.56, 0.000, 0.000, 0.000, 15:28:49.162
157, -2568.49, -2276.87, -2067.31, -1984.34, 0.000, 0.000, 0.000, 15:28:49.169
158, -2585.11, -2292.32, -2081.05, -2006.44, 0.000, 0.000, 0.000, 15:28:49.170
159, -2555.27, -2273.80, -2046.36, -1978.74, 0.000, 0.000, 0.000, 15:28:49.228
160, -2533.92, -2250.80, -2027.12, -1956.76, 0.000, 0.000, 0.000, 15:28:49.228
161, -2563.76, -2277.93, -2056.88, -1987.61, 0.000, 0.000, 0.000, 15:28:49.228
162, -2584.72, -2292.30, -2085.09, -2004.69, 0.000, 0.000, 0.000, 15:28:49.229
163, -2557.71, -2254.84, -2060.79, -1959.39, 0.000, 0.000, 0.000, 15:28:49.229
164, -2548.01, -2262.36, -2047.81, -1968.53, 0.000, 0.000, 0.000, 15:28:49.229
165, -2557.02, -2283.06, -2054.69, -1983.06, 0.000, 0.000, 0.000, 15:28:49.231
166, -2565.18, -2276.95, -2056.40, -1952.96, 0.000, 0.000, 0.000, 15:28:49.231
167, -2557.29, -2263.81, -2046.69, -1968.55, 0.000, 0.000, 0.000, 15:28:49.231
168, -2544.33, -2251.61, -2030.61, -1961.52, 0.000, 0.000, 0.000, 15:28:49.231
169, -2566.30, -2274.07, -2056.17, -1972.47, 0.000, 0.000, 0.000, 15:28:49.231
170, -2585.14, -2292.05, -2078.41, -1992.74, 0.000, 0.000, 0.000, 15:28:49.231
171, -2573.90, -2283.67, -2063.96, -1994.45, 0.000, 0.000, 0.000, 15:28:49.245
172, -2544.71, -2241.93, -2035.91, -1944.33, 0.000, 0.000, 0.000, 15:28:49.245
173, -2568.91, -2271.70, -2065.84, -1985.88, 0.000, 0.000, 0.000, 15:28:49.246
174, -2577.56, -2284.30, -2074.00, -1992.58, 0.000, 0.000, 0.000, 15:28:49.246
175, -2564.96, -2270.05, -2069.02, -1985.13, 0.000, 0.000, 0.000, 15:28:49.261
176, -2539.82, -2246.53, -2036.65, -1956.95, 0.000, 0.000, 0.000, 15:28:49.261
177, -2553.86, -2258.71, -2044.06, -1949.70, 0.000, 0.000, 0.000, 15:28:49.275
178, -2589.60, -2307.84, -2083.89, -2013.45, 0.000, 0.000, 0.000, 15:28:49.278
179, -2562.35, -2267.95, -2062.27, -1984.23, 0.000, 0.000, 0.000, 15:28:49.281
180, -2534.94, -2242.41, -2031.36, -1939.27, 0.000, 0.000, 0.000, 15:28:49.281
181, -2563.23, -2274.01, -2055.91, -2000.30, 0.000, 0.000, 0.000, 15:28:49.291
182, -2578.97, -2284.91, -2074.39, -1987.52, 0.000, 0.000, 0.000, 15:28:49.291
183, -2561.62, -2269.46, -2062.86, -1986.70, 0.000, 0.000, 0.000, 15:28:49.319
184, -2541.85, -2254.96, -2041.50, -1971.04, 0.000, 0.000, 0.000, 15:28:49.319
185, -2567.42, -2279.25, -2055.58, -1987.01, 0.000, 0.000, 0.000, 15:28:49.320
186, -2580.01, -2291.38, -2076.83, -1999.73, 0.000, 0.000, 0.000, 15:28:49.320
187, -2556.14, -2265.70, -2053.66, -1971.41, 0.000, 0.000, 0.000, 15:28:49.320
188, -2534.66, -2240.70, -2031.90, -1942.11, 0.000, 0.000, 0.000, 15:28:49.320
189, -2549.99, -2268.27, -2048.51, -1965.66, 0.000, 0.000, 0.000, 15:28:49.321
190, -2567.96, -2290.42, -2072.53, -1977.89, 0.000, 0.000, 0.000, 15:28:49.321
191, -2557.62, -2264.88, -2055.22, -1970.09, 0.000, 0.000, 0.000, 15:28:49.335
192, -2542.68, -2250.96, -2042.01, -1967.74, 0.000, 0.000, 0.000, 15:28:49.335
193, -2568.55, -2274.73, -2062.85, -1991.12, 0.000, 0.000, 0.000, 15:28:49.349
194, -2583.30, -2291.56, -2079.95, -1999.11, 0.000, 0.000, 0.000, 15:28:49.350
195, -2557.29, -2267.04, -2048.68, -1974.64, 0.000, 0.000, 0.000, 15:28:49.364
196, -2538.21, -2236.42, -2038.82, -1943.83, 0.000, 0.000, 0.000, 15:28:49.364
197, -2558.01, -2273.31, -2056.71, -1981.28, 0.000, 0.000, 0.000, 15:28:49.365
198, -2574.34, -2273.56, -2069.14, -1980.13, 0.000, 0.000, 0.000, 15:28:49.365
199, -2562.77, -2276.54, -2063.79, -1966.96, 0.000, 0.000, 0.000, 15:28:49.397
200, -2538.60, -2253.38, -2034.56, -1971.50, 0.000, 0.000, 0.000, 15:28:49.397
0, -2555.84, -2272.40, -2055.39, -1974.02, 0.000, 0.000, 0.000, 15:28:49.399
1, -2587.71, -2292.78, -2083.67, -1982.71, 0.000, 0.000, 0.000, 15:28:49.399
2, -2584.14, -2286.93, -2074.14, -1996.97, 0.000, 0.000, 0.000, 15:28:49.399
3, -2540.49, -2245.65, -2034.21, -1935.97, 0.000, 0.000, 0.000, 15:28:49.399
4, -2573.52, -2275.72, -2061.89, -1990.80, 0.000, 0.000, 0.000, 15:28:49.399
5, -2583.98, -2298.64, -2078.73, -2003.07, 0.000, 0.000, 0.000, 15:28:49.419
6, -2556.24, -2265.19, -2055.00, -1965.53, 0.000, 0.000, 0.000, 15:28:49.419
7, -2539.11, -2244.55, -2028.82, -1952.34, 0.000, 0.000, 0.000, 15:28:49.424
8, -2564.92, -2275.73, -2058.06, -1970.44, 0.000, 0.000, 0.000, 15:28:49.424
9, -2585.70, -2291.00, -2081.22, -1990.22, 0.000, 0.000, 0.000, 15:28:49.439
10, -2566.69, -2274.88, -2064.54, -1975.08, 0.000, 0.000, 0.000, 15:28:49.439
11, -2551.08, -2252.28, -2040.12, -1950.02, 0.000, 0.000, 0.000, 15:28:49.442
12, -2559.99, -2261.12, -2048.81, -1952.17, 0.000, 0.000, 0.000, 15:28:49.442
13, -2590.14, -2296.90, -2080.47, -2005.55, 0.000, 0.000, 0.000, 15:28:49.454
14, -2570.77, -2274.42, -2059.90, -1974.65, 0.000, 0.000, 0.000, 15:28:49.455
15, -2532.42, -2247.83, -2016.61, -1925.19, 0.000, 0.000, 0.000, 15:28:49.484
16, -2560.48, -2267.75, -2049.17, -1980.69, 0.000, 0.000, 0.000, 15:28:49.484
17, -2576.91, -2282.79, -2071.42, -1975.24, 0.000, 0.000, 0.000, 15:28:49.485
18, -2570.47, -2285.74, -2065.38, -1996.72, 0.000, 0.000, 0.000, 15:28:49.485
19, -2542.73, -2248.97, -2038.18, -1959.02, 0.000, 0.000, 0.000, 15:28:49.485
20, -2556.89, -2270.72, -2050.72, -1963.28, 0.000, 0.000, 0.000, 15:28:49.485
21, -2579.21, -2289.30, -2082.94, -2007.31, 0.000, 0.000, 0.000, 15:28:49.486
22, -2569.60, -2277.28, -2065.27, -1994.17, 0.000, 0.000, 0.000, 15:28:49.486
23, -2535.87, -2246.79, -2036.99, -1950.90, 0.000, 0.000, 0.000, 15:28:49.499
24, -2551.78, -2256.76, -2044.93, -1945.85, 0.000, 0.000, 0.000, 15:28:49.499
25, -2579.04, -2286.92, -2076.92, -2002.88, 0.000, 0.000, 0.000, 15:28:49.515
26, -2544.82, -2252.49, -2044.51, -1960.06, 0.000, 0.000, 0.000, 15:28:49.515
27, -2531.71, -2253.00, -2028.16, -1953.67, 0.000, 0.000, 0.000, 15:28:49.546
28, -2555.93, -2272.51, -2054.92, -1977.38, 0.000, 0.000, 0.000, 15:28:49.546
29, -2588.60, -2297.41, -2082.59, -1999.28, 0.000, 0.000, 0.000, 15:28:49.547
30, -2573.95, -2272.59, -2064.08, -1979.79, 0.000, 0.000, 0.000, 15:28:49.547
31, -2546.39, -2252.09, -2045.82, -1960.16, 0.000, 0.000, 0.000, 15:28:49.547
32, -2563.42, -2270.96, -2055.66, -1974.12, 0.000, 0.000, 0.000, 15:28:49.547
33, -2593.68, -2294.69, -2080.50, -2007.00, 0.000, 0.000, 0.000, 15:28:49.547
34, -2571.03, -2263.00, -2064.45, -1980.68, 0.000, 0.000, 0.000, 15:28:49.548
35, -2552.80, -2256.85, -2038.81, -1960.30, 0.000, 0.000, 0.000, 15:28:49.590
36, -2554.09, -2257.75, -2050.83, -1940.22, 0.000, 0.000, 0.000, 15:28:49.591
37, -2596.49, -2313.07, -2091.14, -2013.48, 0.000, 0.000, 0.000, 15:28:49.591
38, -2573.81, -2284.36, -2070.92, -1992.06, 0.000, 0.000, 0.000, 15:28:49.591
39, -2547.53, -2259.00, -2039.90, -1962.58, 0.000, 0.000, 0.000, 15:28:49.591
40, -2563.75, -2264.13, -2058.97, -1950.57, 0.000, 0.000, 0.000, 15:28:49.591
41, -2592.81, -2307.40, -2088.35, -2009.73, 0.000, 0.000, 0.000, 15:28:49.606
42, -2565.40, -2276.88, -2057.59, -1981.14, 0.000, 0.000, 0.000, 15:28:49.606
43, -2546.49, -2259.60, -2037.48, -1958.95, 0.000, 0.000, 0.000, 15:28:49.606
44, -2551.42, -2265.53, -2045.61, -1964.66, 0.000, 0.000, 0.000, 15:28:49.606
45, -2586.88, -2291.33, -2077.39, -1987.49, 0.000, 0.000, 0.000, 15:28:49.619
46, -2570.91, -2274.76, -2067.68, -1975.26, 0.000, 0.000, 0.000, 15:28:49.619
47, -2546.66, -2252.84, -2040.19, -1955.19, 0.000, 0.000, 0.000, 15:28:49.620
48, -2560.74, -2263.92, -2042.01, -1966.91, 0.000, 0.000, 0.000, 15:28:49.620
49, -2585.24, -2300.47, -2076.50, -2006.62, 0.000, 0.000, 0.000, 15:28:49.641
50, -2577.83, -2286.70, -2064.45, -1982.68, 0.000, 0.000, 0.000, 15:28:49.641
51, -2544.84, -2250.73, -2036.99, -1938.18, 0.000, 0.000, 0.000, 15:28:49.649
52, -2572.76, -2282.88, -2060.86, -1990.31, 0.000, 0.000, 0.000, 15:28:49.649
53, -2590.57, -2302.01, -2086.76, -2005.62, 0.000, 0.000, 0.000, 15:28:49.652
54, -2575.04, -2284.86, -2076.76, -1983.27, 0.000, 0.000, 0.000, 15:28:49.652
55, -2539.65, -2243.60, -2040.59, -1948.97, 0.000, 0.000, 0.000, 15:28:49.664
56, -2543.56, -2253.42, -2039.87, -1954.11, 0.000, 0.000, 0.000, 15:28:49.664
57, -2581.53, -2287.86, -2078.28, -1991.17, 0.000, 0.000, 0.000, 15:28:49.689
58, -2563.16, -2267.49, -2066.25, -1973.22, 0.000, 0.000, 0.000, 15:28:49.690
59, -2532.12, -2242.86, -2033.33, -1948.93, 0.000, 0.000, 0.000, 15:28:49.690
60, -2551.73, -2253.49, -2061.61, -1964.75, 0.000, 0.000, 0.000, 15:28:49.696
61, -2576.40, -2289.61, -2079.51, -1997.24, 0.000, 0.000, 0.000, 15:28:49.698
62, -2558.30, -2264.96, -2053.79, -1958.95, 0.000, 0.000, 0.000, 15:28:49.698
63, -2541.13, -2254.07, -2026.78, -1951.80, 0.000, 0.000, 0.000, 15:28:49.711
64, -2563.26, -2274.10, -2061.88, -1989.94, 0.000, 0.000, 0.000, 15:28:49.711
65, -2581.39, -2298.20, -2080.52, -2003.84, 0.000, 0.000, 0.000, 15:28:49.711
66, -2570.88, -2270.58, -2053.29, -1985.76, 0.000, 0.000, 0.000, 15:28:49.711
67, -2547.00, -2255.51, -2027.23, -1955.79, 0.000, 0.000, 0.000, 15:28:49.724
68, -2549.78, -2263.78, -2048.47, -1964.53, 0.000, 0.000, 0.000, 15:28:49.724
69, -2586.69, -2299.12, -2081.44, -2006.67, 0.000, 0.000, 0.000, 15:28:49.739
70, -2569.93, -2279.81, -2057.48, -1976.78, 0.000, 0.000, 0.000, 15:28:49.739
71, -2560.99, -2264.23, -2050.53, -1969.67, 0.000, 0.000, 0.000, 15:28:49.740
72, -2556.91, -2265.30, -2044.54, -1959.76, 0.000, 0.000, 0.000, 15:28:49.740
73, -2576.03, -2291.89, -2072.11, -1988.37, 0.000, 0.000, 0.000, 15:28:49.754
74, -2569.66, -2274.35, -2071.26, -1970.94, 0.000, 0.000, 0.000, 15:28:49.755
75, -2555.26, -2276.16, -2049.46, -1970.51, 0.000, 0.000, 0.000, 15:28:49.772
76, -2557.12, -2262.73, -2040.15, -1947.82, 0.000, 0.000, 0.000, 15:28:49.773
77, -2583.88, -2298.80, -2072.94, -2008.51, 0.000, 0.000, 0.000, 15:28:49.773
78, -2558.51, -2276.59, -2057.10, -1969.58, 0.000, 0.000, 0.000, 15:28:49.773
79, -2550.54, -2261.18, -2040.82, -1971.52, 0.000, 0.000, 0.000, 15:28:49.784
80, -2539.44, -2239.72, -2038.48, -1943.39, 0.000, 0.000, 0.000, 15:28:49.784
81, -2584.08, -2293.59, -2076.68, -2002.33, 0.000, 0.000, 0.000, 15:28:49.799
82, -2569.86, -2279.92, -2064.34, -1988.43, 0.000, 0.000, 0.000, 15:28:49.799
83, -2535.55, -2247.18, -2035.64, -1947.72, 0.000, 0.000, 0.000, 15:28:49.800
84, -2540.21, -2243.67, -2037.05, -1953.71, 0.000, 0.000, 0.000, 15:28:49.800
85, -2572.47, -2281.57, -2063.70, -1991.48, 0.000, 0.000, 0.000, 15:28:49.814
86, -2562.90, -2273.54, -2057.27, -1979.32, 0.000, 0.000, 0.000, 15:28:49.814
87, -2532.12, -2244.19, -2027.52, -1946.50, 0.000, 0.000, 0.000, 15:28:49.829
88, -2535.44, -2245.87, -2023.09, -1953.46, 0.000, 0.000, 0.000, 15:28:49.829
89, -2581.17, -2293.79, -2082.60, -2000.71, 0.000, 0.000, 0.000, 15:28:49.829
90, -2564.50, -2272.37, -2058.74, -1980.87, 0.000, 0.000, 0.000, 15:28:49.829
91, -2540.45, -2263.18, -2028.56, -1957.87, 0.000, 0.000, 0.000, 15:28:49.844
92, -2541.90, -2262.19, -2037.51, -1962.38, 0.000, 0.000, 0.000, 15:28:49.844
93, -2578.25, -2284.56, -2069.42, -1991.22, 0.000, 0.000, 0.000, 15:28:49.859
94, -2577.54, -2274.68, -2053.68, -1966.06, 0.000, 0.000, 0.000, 15:28:49.859
95, -2555.54, -2265.22, -2050.38, -1979.29, 0.000, 0.000, 0.000, 15:28:49.859
96, -2566.48, -2272.33, -2058.94, -1980.23, 0.000, 0.000, 0.000, 15:28:49.859
97, -2596.28, -2304.89, -2089.49, -2009.18, 0.000, 0.000, 0.000, 15:28:49.874
98, -2582.23, -2281.13, -2075.43, -1992.10, 0.000, 0.000, 0.000, 15:28:49.874
99, -2543.79, -2248.15, -2038.06, -1959.51, 0.000, 0.000, 0.000, 15:28:49.889
100, -2563.52, -2269.09, -2062.81, -1975.60, 0.000, 0.000, 0.000, 15:28:49.889
101, -2582.74, -2296.53, -2084.24, -2004.20, 0.000, 0.000, 0.000, 15:28:49.892
102, -2574.10, -2277.55, -2078.67, -1989.08, 0.000, 0.000, 0.000, 15:28:49.892
103, -2547.08, -2254.77, -2045.17, -1961.56, 0.000, 0.000, 0.000, 15:28:49.904
104, -2545.68, -2254.09, -2041.32, -1960.06, 0.000, 0.000, 0.000, 15:28:49.904
105, -2588.13, -2288.61, -2093.23, -1999.75, 0.000, 0.000, 0.000, 15:28:49.923
106, -2567.82, -2266.49, -2063.39, -1981.01, 0.000, 0.000, 0.000, 15:28:49.923
107, -2549.95, -2257.62, -2050.83, -1965.97, 0.000, 0.000, 0.000, 15:28:49.924
108, -2552.30, -2250.76, -2041.03, -1957.73, 0.000, 0.000, 0.000, 15:28:49.924
109, -2575.18, -2285.56, -2072.53, -1994.08, 0.000, 0.000, 0.000, 15:28:49.934
110, -2555.67, -2266.26, -2058.38, -1970.09, 0.000, 0.000, 0.000, 15:28:49.934
111, -2539.07, -2237.04, -2048.84, -1962.68, 0.000, 0.000, 0.000, 15:28:49.951
112, -2528.29, -2239.70, -2042.52, -1951.80, 0.000, 0.000, 0.000, 15:28:49.951
113, -2562.06, -2269.94, -2070.25, -1993.53, 0.000, 0.000, 0.000, 15:28:49.951
114, -2544.76, -2246.58, -2058.54, -1971.53, 0.000, 0.000, 0.000, 15:28:49.951
115, -2528.64, -2230.74, -2039.46, -1946.87, 0.000, 0.000, 0.000, 15:28:49.964
116, -2532.15, -2238.09, -2038.36, -1970.97, 0.000, 0.000, 0.000, 15:28:49.964
117, -2560.85, -2270.04, -2071.51, -1991.72, 0.000, 0.000, 0.000, 15:28:49.979
118, -2551.63, -2258.27, -2060.24, -1974.67, 0.000, 0.000, 0.000, 15:28:49.979
119, -2528.88, -2235.53, -2032.92, -1957.70, 0.000, 0.000, 0.000, 15:28:49.979
120, -2525.15, -2231.51, -2034.13, -1947.47, 0.000, 0.000, 0.000, 15:28:49.979
121, -2562.22, -2271.23, -2055.15, -1983.15, 0.000, 0.000, 0.000, 15:28:50.000
122, -2554.11, -2259.36, -2053.25, -1972.83, 0.000, 0.000, 0.000, 15:28:50.001
123, -2537.46, -2242.54, -2042.54, -1951.85, 0.000, 0.000, 0.000, 15:28:50.014
124, -2543.04, -2250.02, -2036.30, -1962.92, 0.000, 0.000, 0.000, 15:28:50.014
125, -2574.47, -2282.92, -2080.29, -1995.69, 0.000, 0.000, 0.000, 15:28:50.014
126, -2564.31, -2273.56, -2060.22, -1984.76, 0.000, 0.000, 0.000, 15:28:50.014
127, -2545.43, -2241.11, -2042.18, -1949.00, 0.000, 0.000, 0.000, 15:28:50.026
128, -2548.29, -2266.01, -2030.03, -1956.19, 0.000, 0.000, 0.000, 15:28:50.026
129, -2588.88, -2306.81, -2088.49, -2026.39, 0.000, 0.000, 0.000, 15:28:50.039
130, -2570.46, -2282.05, -2068.34, -1998.10, 0.000, 0.000, 0.000, 15:28:50.039
131, -2547.28, -2267.27, -2041.47, -1972.97, 0.000, 0.000, 0.000, 15:28:50.039
132, -2544.86, -2255.81, -2039.56, -1961.91, 0.000, 0.000, 0.000, 15:28:50.039
133, -2578.17, -2299.79, -2070.67, -1995.98, 0.000, 0.000, 0.000, 15:28:50.054
134, -2563.94, -2272.47, -2055.49, -1972.99, 0.000, 0.000, 0.000, 15:28:50.054
135, -2549.01, -2279.01, -2039.58, -1972.08, 0.000, 0.000, 0.000, 15:28:50.074
136, -2548.79, -2262.76, -2045.03, -1956.02, 0.000, 0.000, 0.000, 15:28:50.074
137, -2585.53, -2297.35, -2074.80, -2000.55, 0.000, 0.000, 0.000, 15:28:50.075
138, -2572.95, -2269.93, -2068.75, -1952.36, 0.000, 0.000, 0.000, 15:28:50.093
139, -2554.26, -2264.73, -2050.03, -1970.26, 0.000, 0.000, 0.000, 15:28:50.093
140, -2543.32, -2246.95, -2028.42, -1954.54, 0.000, 0.000, 0.000, 15:28:50.093
141, -2579.42, -2291.82, -2073.47, -1989.12, 0.000, 0.000, 0.000, 15:28:50.099
142, -2568.52, -2277.57, -2059.64, -1973.36, 0.000, 0.000, 0.000, 15:28:50.099
143, -2558.05, -2267.84, -2049.90, -1962.28, 0.000, 0.000, 0.000, 15:28:50.099
144, -2558.36, -2263.09, -2042.89, -1957.70, 0.000, 0.000, 0.000, 15:28:50.099
145, -2594.42, -2307.23, -2079.82, -2004.09, 0.000, 0.000, 0.000, 15:28:50.140
146, -2585.11, -2297.54, -2072.25, -1993.21, 0.000, 0.000, 0.000, 15:28:50.140
147, -2560.51, -2268.89, -2046.37, -1969.00, 0.000, 0.000, 0.000, 15:28:50.141
148, -2549.10, -2260.54, -2051.26, -1958.85, 0.000, 0.000, 0.000, 15:28:50.141
149, -2581.00, -2292.86, -2071.65, -1978.99, 0.000, 0.000, 0.000, 15:28:50.141
150, -2577.66, -2286.65, -2063.23, -1990.15, 0.000, 0.000, 0.000, 15:28:50.142
151, -2562.86, -2269.58, -2048.60, -1961.83, 0.000, 0.000, 0.000, 15:28:50.172
152, -2558.00, -2273.24, -2046.31, -1969.11, 0.000, 0.000, 0.000, 15:28:50.173
153, -2590.67, -2291.52, -2084.21, -2003.64, 0.000, 0.000, 0.000, 15:28:50.173
154, -2582.07, -2287.76, -2065.83, -1991.63, 0.000, 0.000, 0.000, 15:28:50.173
155, -2558.97, -2268.39, -2045.10, -1971.36, 0.000, 0.000, 0.000, 15:28:50.173
156, -2554.26, -2271.89, -2045.05, -1968.97, 0.000, 0.000, 0.000, 15:28:50.173
157, -2579.03, -2292.58, -2072.48, -1999.07, 0.000, 0.000, 0.000, 15:28:50.175
158, -2585.32, -2283.49, -2067.35, -1980.98, 0.000, 0.000, 0.000, 15:28:50.175
159, -2560.06, -2266.86, -2052.57, -1973.23, 0.000, 0.000, 0.000, 15:28:50.189
160, -2543.98, -2246.48, -2032.76, -1932.76, 0.000, 0.000, 0.000, 15:28:50.189
161, -2590.98, -2296.83, -2078.80, -2009.99, 0.000, 0.000, 0.000, 15:28:50.189
162, -2579.32, -2278.59, -2074.89, -1986.76, 0.000, 0.000, 0.000, 15:28:50.189
163, -2554.96, -2267.77, -2044.41, -1971.40, 0.000, 0.000, 0.000, 15:28:50.258
164, -2544.92, -2248.57, -2038.88, -1954.06, 0.000, 0.000, 0.000, 15:28:50.259
165, -2582.02, -2302.04, -2073.69, -1994.66, 0.000, 0.000, 0.000, 15:28:50.259
166, -2579.19, -2293.99, -2070.48, -1990.59, 0.000, 0.000, 0.000, 15:28:50.259
167, -2550.76, -2242.52, -2042.83, -1955.89, 0.000, 0.000, 0.000, 15:28:50.259
168, -2531.81, -2249.33, -2019.56, -1935.99, 0.000, 0.000, 0.000, 15:28:50.259
169, -2581.84, -2298.01, -2077.60, -1997.73, 0.000, 0.000, 0.000, 15:28:50.260
170, -2583.18, -2282.32, -2076.13, -1983.21, 0.000, 0.000, 0.000, 15:28:50.260
171, -2559.48, -2263.65, -2051.36, -1963.01, 0.000, 0.000, 0.000, 15:28:50.260
172, -2554.94, -2260.78, -2047.76, -1958.32, 0.000, 0.000, 0.000, 15:28:50.260
173, -2575.69, -2288.85, -2068.67, -1958.45, 0.000, 0.000, 0.000, 15:28:50.260
174, -2586.12, -2280.65, -2075.85, -1997.83, 0.000, 0.000, 0.000, 15:28:50.261
175, -2557.75, -2256.70, -2048.74, -1959.43, 0.000, 0.000, 0.000, 15:28:50.289
176, -2542.40, -2259.03, -2033.77, -1954.37, 0.000, 0.000, 0.000, 15:28:50.296
177, -2581.18, -2289.76, -2070.28, -1985.94, 0.000, 0.000, 0.000, 15:28:50.296
178, -2593.61, -2296.15, -2085.58, -2001.26, 0.000, 0.000, 0.000, 15:28:50.297
179, -2569.68, -2275.11, -2049.43, -1971.22, 0.000, 0.000, 0.000, 15:28:50.297
180, -2546.96, -2249.26, -2037.88, -1957.49, 0.000, 0.000, 0.000, 15:28:50.297
181, -2581.39, -2291.81, -2083.66, -1991.01, 0.000, 0.000, 0.000, 15:28:50.297
182, -2584.06, -2276.31, -2075.41, -1992.68, 0.000, 0.000, 0.000, 15:28:50.297
183, -2548.60, -2253.22, -2037.93, -1940.89, 0.000, 0.000, 0.000, 15:28:50.415
184, -2549.74, -2248.30, -2027.91, -1963.24, 0.000, 0.000, 0.000, 15:28:50.415
185, -2589.14, -2297.74, -2084.41, -2007.69, 0.000, 0.000, 0.000, 15:28:50.652
186, -2580.63, -2289.81, -2074.25, -1999.03, 0.000, 0.000, 0.000, 15:28:50.652
187, -2557.22, -2264.96, -2050.35, -1972.38, 0.000, 0.000, 0.000, 15:28:50.652
188, -2530.87, -2233.77, -2019.93, -1935.48, 0.000, 0.000, 0.000, 15:28:50.653
189, -2587.06, -2300.05, -2072.05, -2006.11, 0.000, 0.000, 0.000, 15:28:50.653
190, -2579.60, -2286.43, -2068.06, -1986.46, 0.000, 0.000, 0.000, 15:28:50.653
191, -2556.17, -2261.65, -2046.35, -1965.12, 0.000, 0.000, 0.000, 15:28:50.653
192, -2548.29, -2254.61, -2038.41, -1959.85, 0.000, 0.000, 0.000, 15:28:50.653
193, -2583.62, -2294.05, -2077.14, -1993.40, 0.000, 0.000, 0.000, 15:28:50.653
194, -2572.21, -2279.92, -2066.78, -1948.81, 0.000, 0.000, 0.000, 15:28:50.653
195, -2566.34, -2274.42, -2058.71, -1983.61, 0.000, 0.000, 0.000, 15:28:50.653
196, -2549.52, -2259.50, -2045.32, -1962.29, 0.000, 0.000, 0.000, 15:28:50.654
197, -2570.96, -2293.16, -2071.65, -1995.53, 0.000, 0.000, 0.000, 15:28:50.654
198, -2573.93, -2289.97, -2066.18, -1995.75, 0.000, 0.000, 0.000, 15:28:50.654
199, -2550.13, -2271.54, -2045.85, -1976.23, 0.000, 0.000, 0.000, 15:28:50.654
200, -2526.89, -2244.56, -2021.77, -1949.36, 0.000, 0.000, 0.000, 15:28:50.654
0, -2556.23, -2269.03, -2054.74, -1975.06, 0.000, 0.000, 0.000, 15:28:50.654
1, -2567.88, -2287.55, -2061.06, -1997.01, 0.000, 0.000, 0.000, 15:28:50.654
2, -2545.88, -2266.87, -2037.94, -1966.13, 0.000, 0.000, 0.000, 15:28:50.654
3, -2528.79, -2256.70, -2022.83, -1960.57, 0.000, 0.000, 0.000, 15:28:50.654
4, -2574.15, -2289.14, -2058.53, -1996.65, 0.000, 0.000, 0.000, 15:28:50.654
5, -2583.36, -2295.18, -2075.81, -1996.44, 0.000, 0.000, 0.000, 15:28:50.655
6, -2546.00, -2257.00, -2043.18, -1933.46, 0.000, 0.000, 0.000, 15:28:50.655
7, -2545.08, -2254.26, -2033.29, -1962.37, 0.000, 0.000, 0.000, 15:28:50.655
8, -2580.82, -2294.97, -2078.97, -2001.69, 0.000, 0.000, 0.000, 15:28:50.655
9, -2571.36, -2279.07, -2065.94, -1981.77, 0.000, 0.000, 0.000, 15:28:50.655
10, -2545.93, -2261.50, -2041.91, -1960.17, 0.000, 0.000, 0.000, 15:28:50.655
11, -2537.62, -2237.17, -2027.65, -1942.67, 0.000, 0.000, 0.000, 15:28:50.655
12, -2575.09, -2288.99, -2072.98, -1989.42, 0.000, 0.000, 0.000, 15:28:50.655
13, -2587.94, -2288.46, -2081.02, -1992.53, 0.000, 0.000, 0.000, 15:28:50.655
14, -2566.78, -2289.71, -2062.77, -1988.63, 0.000, 0.000, 0.000, 15:28:50.655
15, -2537.13, -2247.47, -2027.11, -1956.85, 0.000, 0.000, 0.000, 15:28:50.656
16, -2574.24, -2294.09, -2069.46, -1995.77, 0.000, 0.000, 0.000, 15:28:50.656
17, -2572.43, -2281.99, -2058.18, -1992.32, 0.000, 0.000, 0.000, 15:28:50.721
18, -2557.04, -2269.46, -2052.67, -1976.95, 0.000, 0.000, 0.000, 15:28:50.721
19, -2535.83, -2243.89, -2033.53, -1947.58, 0.000, 0.000, 0.000, 15:28:50.722
20, -2576.69, -2287.17, -2074.04, -1992.90, 0.000, 0.000, 0.000, 15:28:50.722
21, -2573.30, -2286.16, -2061.04, -1979.87, 0.000, 0.000, 0.000, 15:28:50.722
22, -2559.61, -2266.31, -2061.51, -1974.74, 0.000, 0.000, 0.000, 15:28:50.722
23, -2546.42, -2244.82, -2036.30, -1954.34, 0.000, 0.000, 0.000, 15:28:50.746
24, -2574.38, -2286.52, -2061.60, -1983.38, 0.000, 0.000, 0.000, 15:28:50.747
25, -2575.44, -2275.38, -2058.27, -1975.01, 0.000, 0.000, 0.000, 15:28:50.747
26, -2565.57, -2274.48, -2056.76, -1967.59, 0.000, 0.000, 0.000, 15:28:50.748
27, -2540.89, -2250.92, -2034.07, -1948.07, 0.000, 0.000, 0.000, 15:28:50.748
28, -2572.35, -2274.58, -2070.17, -1973.52, 0.000, 0.000, 0.000, 15:28:50.748
29, -2582.80, -2291.72, -2080.13, -1994.90, 0.000, 0.000, 0.000, 15:28:50.748
30, -2561.47, -2272.23, -2053.06, -1965.75, 0.000, 0.000, 0.000, 15:28:50.748
31, -2548.76, -2249.22, -2034.59, -1956.98, 0.000, 0.000, 0.000, 15:28:50.748
32, -2581.28, -2295.54, -2078.16, -2000.42, 0.000, 0.000, 0.000, 15:28:50.748
33, -2589.43, -2295.40, -2091.67, -2003.26, 0.000, 0.000, 0.000, 15:28:50.751
34, -2561.13, -2268.00, -2057.09, -1962.26, 0.000, 0.000, 0.000, 15:28:50.752
35, -2530.86, -2255.56, -2029.37, -1967.24, 0.000, 0.000, 0.000, 15:28:50.752
36, -2567.89, -2288.34, -2067.86, -1990.65, 0.000, 0.000, 0.000, 15:28:50.752
37, -2571.07, -2286.52, -2056.70, -1994.18, 0.000, 0.000, 0.000, 15:28:50.752
38, -2550.79, -2251.73, -2033.40, -1947.11, 0.000, 0.000, 0.000, 15:28:50.752
39, -2538.49, -2257.44, -2021.03, -1942.25, 0.000, 0.000, 0.000, 15:28:50.752
40, -2586.09, -2305.17, -2081.21, -2013.02, 0.000, 0.000, 0.000, 15:28:50.752
41, -2586.40, -2299.83, -2080.40, -2012.29, 0.000, 0.000, 0.000, 15:28:50.753
42, -2552.37, -2259.55, -2052.16, -1964.03, 0.000, 0.000, 0.000, 15:28:50.753
43, -2533.46, -2239.89, -2025.30, -1939.02, 0.000, 0.000, 0.000, 15:28:50.764
44, -2567.38, -2277.56, -2063.32, -1984.93, 0.000, 0.000, 0.000, 15:28:50.764
45, -2569.74, -2283.61, -2066.26, -1990.82, 0.000, 0.000, 0.000, 15:28:50.764
46, -2557.22, -2269.14, -2051.42, -1966.07, 0.000, 0.000, 0.000, 15:28:50.765
47, -2548.70, -2255.37, -2040.55, -1956.59, 0.000, 0.000, 0.000, 15:28:50.765
48, -2573.96, -2283.24, -2066.76, -1986.78, 0.000, 0.000, 0.000, 15:28:50.765
49, -2581.88, -2288.91, -2072.53, -1992.43, 0.000, 0.000, 0.000, 15:28:50.766
50, -2551.61, -2245.95, -2051.42, -1945.03, 0.000, 0.000, 0.000, 15:28:50.766
51, -2556.32, -2267.39, -2048.74, -1966.29, 0.000, 0.000, 0.000, 15:28:50.767
52, -2568.62, -2276.09, -2059.63, -1958.37, 0.000, 0.000, 0.000, 15:28:50.767
53, -2590.46, -2304.34, -2083.60, -2013.05, 0.000, 0.000, 0.000, 15:28:50.767
54, -2562.21, -2274.28, -2062.24, -1976.15, 0.000, 0.000, 0.000, 15:28:50.767
55, -2548.78, -2255.52, -2042.93, -1970.43, 0.000, 0.000, 0.000, 15:28:50.770
56, -2568.60, -2282.54, -2060.65, -1980.66, 0.000, 0.000, 0.000, 15:28:50.770
57, -2576.60, -2286.95, -2066.45, -2003.10, 0.000, 0.000, 0.000, 15:28:50.770
58, -2568.51, -2283.11, -2059.10, -1994.88, 0.000, 0.000, 0.000, 15:28:50.770
59, -2523.24, -2232.23, -2020.51, -1940.80, 0.000, 0.000, 0.000, 15:28:50.770
60, -2562.38, -2269.29, -2057.10, -1971.29, 0.000, 0.000, 0.000, 15:28:50.770
61, -2581.12, -2293.22, -2072.39, -2000.09, 0.000, 0.000, 0.000, 15:28:50.770
62, -2541.20, -2248.12, -2041.95, -1958.79, 0.000, 0.000, 0.000, 15:28:50.770
63, -2527.18, -2244.60, -2026.72, -1958.68, 0.000, 0.000, 0.000, 15:28:50.770
64, -2563.40, -2270.75, -2055.87, -1977.03, 0.000, 0.000, 0.000, 15:28:50.770
65, -2579.30, -2282.46, -2065.99, -1994.13, 0.000, 0.000, 0.000, 15:28:50.770
66, -2564.89, -2271.35, -2056.75, -1977.45, 0.000, 0.000, 0.000, 15:28:50.771
67, -2532.18, -2249.39, -2026.87, -1962.12, 0.000, 0.000, 0.000, 15:28:50.771
68, -2557.20, -2270.93, -2046.28, -1969.77, 0.000, 0.000, 0.000, 15:28:50.771
69, -2588.51, -2294.16, -2074.44, -2000.55, 0.000, 0.000, 0.000, 15:28:50.771
70, -2569.11, -2283.96, -2068.39, -1978.34, 0.000, 0.000, 0.000, 15:28:50.771
71, -2553.13, -2257.14, -2043.57, -1967.73, 0.000, 0.000, 0.000, 15:28:50.771
72, -2590.84, -2292.32, -2083.56, -1996.12, 0.000, 0.000, 0.000, 15:28:50.771
73, -2596.66, -2279.81, -2092.85, -1971.23, 0.000, 0.000, 0.000, 15:28:50.771
74, -2591.83, -2292.44, -2083.21, -2006.41, 0.000, 0.000, 0.000, 15:28:50.771
75, -2569.16, -2264.36, -2056.82, -1978.33, 0.000, 0.000, 0.000, 15:28:50.783
76, -2591.99, -2282.59, -2082.94, -1986.39, 0.000, 0.000, 0.000, 15:28:50.783
77, -2594.86, -2288.31, -2087.51, -1987.50, 0.000, 0.000, 0.000, 15:28:50.783
78, -2572.95, -2273.66, -2059.86, -1979.21, 0.000, 0.000, 0.000, 15:28:50.783
79, -2558.74, -2244.40, -2043.48, -1957.07, 0.000, 0.000, 0.000, 15:28:50.810
80, -2574.18, -2275.58, -2057.95, -1980.54, 0.000, 0.000, 0.000, 15:28:50.810
81, -2596.66, -2290.00, -2084.46, -1994.59, 0.000, 0.000, 0.000, 15:28:50.811
82, -2580.59, -2277.32, -2063.46, -1975.83, 0.000, 0.000, 0.000, 15:28:50.811
83, -2543.90, -2236.46, -2024.27, -1938.59, 0.000, 0.000, 0.000, 15:28:50.811
84, -2581.37, -2291.68, -2078.60, -1999.97, 0.000, 0.000, 0.000, 15:28:50.812
85, -2579.27, -2273.52, -2071.00, -1951.08, 0.000, 0.000, 0.000, 15:28:50.827
86, -2583.62, -2289.52, -2078.72, -2004.72, 0.000, 0.000, 0.000, 15:28:50.828
87, -2554.20, -2255.83, -2051.04, -1959.53, 0.000, 0.000, 0.000, 15:28:50.834
88, -2568.23, -2269.35, -2055.29, -1965.02, 0.000, 0.000, 0.000, 15:28:50.834
89, -2590.70, -2292.70, -2087.87, -1993.39, 0.000, 0.000, 0.000, 15:28:50.872
90, -2575.96, -2276.24, -2059.78, -1974.02, 0.000, 0.000, 0.000, 15:28:50.872
91, -2553.47, -2262.07, -2038.83, -1964.06, 0.000, 0.000, 0.000, 15:28:50.872
92, -2568.36, -2272.84, -2061.72, -1981.42, 0.000, 0.000, 0.000, 15:28:50.873
93, -2603.85, -2306.08, -2086.44, -2005.46, 0.000, 0.000, 0.000, 15:28:50.891
94, -2567.94, -2276.06, -2057.26, -1978.15, 0.000, 0.000, 0.000, 15:28:50.891
95, -2540.65, -2249.34, -2039.72, -1941.21, 0.000, 0.000, 0.000, 15:28:50.891
96, -2560.15, -2263.34, -2049.27, -1969.99, 0.000, 0.000, 0.000, 15:28:50.891
97, -2580.31, -2292.19, -2068.50, -1969.43, 0.000, 0.000, 0.000, 15:28:50.891
98, -2563.25, -2276.40, -2058.30, -1981.65, 0.000, 0.000, 0.000, 15:28:50.891
99, -2547.88, -2256.30, -2027.99, -1961.35, 0.000, 0.000, 0.000, 15:28:50.900
100, -2564.72, -2269.03, -2058.89, -1976.06, 0.000, 0.000, 0.000, 15:28:50.900
101, -2580.71, -2284.89, -2077.06, -1988.50, 0.000, 0.000, 0.000, 15:28:50.901
102, -2555.12, -2262.09, -2041.81, -1973.63, 0.000, 0.000, 0.000, 15:28:50.901
103, -2535.79, -2227.54, -2025.92, -1935.77, 0.000, 0.000, 0.000, 15:28:50.912
104, -2579.23, -2285.75, -2072.09, -1993.73, 0.000, 0.000, 0.000, 15:28:50.912
105, -2582.36, -2286.25, -2069.28, -1976.35, 0.000, 0.000, 0.000, 15:28:50.924
106, -2573.24, -2278.15, -2056.12, -1983.84, 0.000, 0.000, 0.000, 15:28:50.924
107, -2538.55, -2249.07, -2023.43, -1940.54, 0.000, 0.000, 0.000, 15:28:50.925
108, -2569.51, -2285.28, -2060.11, -1997.77, 0.000, 0.000, 0.000, 15:28:50.925
109, -2579.32, -2287.75, -2063.58, -1987.19, 0.000, 0.000, 0.000, 15:28:50.939
110, -2566.36, -2270.14, -2053.02, -1984.19, 0.000, 0.000, 0.000, 15:28:50.939
111, -2534.58, -2253.14, -2022.22, -1953.71, 0.000, 0.000, 0.000, 15:28:50.954
112, -2553.79, -2272.19, -2046.07, -1972.86, 0.000, 0.000, 0.000, 15:28:50.954
113, -2579.93, -2283.83, -2074.61, -1992.00, 0.000, 0.000, 0.000, 15:28:50.954
114, -2557.70, -2266.12, -2045.97, -1968.31, 0.000, 0.000, 0.000, 15:28:50.954
115, -2540.77, -2259.73, -2042.21, -1959.76, 0.000, 0.000, 0.000, 15:28:50.971
116, -2566.21, -2278.53, -2059.66, -1967.13, 0.000, 0.000, 0.000, 15:28:50.971
117, -2580.14, -2292.64, -2078.01, -1996.95, 0.000, 0.000, 0.000, 15:28:51.017
118, -2570.81, -2282.84, -2071.90, -1991.58, 0.000, 0.000, 0.000, 15:28:51.017
119, -2538.00, -2249.99, -2030.63, -1938.07, 0.000, 0.000, 0.000, 15:28:51.017
