%OpenBCI Raw EEG Data
%
%Sample Rate = 200.0 Hz
%First Column = SampleIndex
%Last Column = Timestamp 
%Other Columns = EEG data in microvolts followed by Accel Data (in G) interleaved with Aux Data
0, -15686.28, -15686.28, -15686.28, -15686.28, 0.000, 0.000, 0.000, 15:10:54.616
1, -15686.28, -15686.28, -15686.28, -15686.28, 0.000, 0.000, 0.000, 15:10:54.644
2, -15686.28, -15686.28, -15686.28, -15686.28, 0.000, 0.000, 0.000, 15:10:54.645
3, -15686.28, -15686.28, -15686.28, -15686.28, 0.000, 0.000, 0.000, 15:10:54.646
4, -15686.28, -15686.28, -15686.28, -15686.28, 0.000, 0.000, 0.000, 15:10:54.646
5, -15686.28, -15686.28, -15686.28, -15686.28, 0.000, 0.000, 0.000, 15:10:54.648
6, -15686.28, -15686.28, -15686.28, -15686.28, 0.000, 0.000, 0.000, 15:10:54.654
7, -15686.28, -15686.28, -15686.28, -15686.28, 0.000, 0.000, 0.000, 15:10:54.665
8, -15686.28, -15686.28, -15686.28, -15686.28, 0.000, 0.000, 0.000, 15:10:54.670
9, -15686.28, -15686.28, -15686.28, -15686.28, 0.000, 0.000, 0.000, 15:10:54.670
10, -15686.28, -15686.28, -15686.28, -15686.28, 0.000, 0.000, 0.000, 15:10:54.671
11, -15686.28, -15686.28, -15686.28, -15686.28, 0.000, 0.000, 0.000, 15:10:54.684
12, -15686.28, -15686.28, -15686.28, -15686.28, 0.000, 0.000, 0.000, 15:10:54.685
13, -15686.28, -15686.28, -15686.28, -15686.28, 0.000, 0.000, 0.000, 15:10:54.689
14, -15686.28, -15686.28, -15686.28, -15686.28, 0.000, 0.000, 0.000, 15:10:54.692
15, -15686.28, -15686.28, -15686.28, -15686.28, 0.000, 0.000, 0.000, 15:10:54.694
16, -15686.28, -15686.28, -15686.28, -15686.28, 0.000, 0.000, 0.000, 15:10:54.694
17, -15686.28, -15665.56, -15624.80, -15677.59, 0.000, 0.000, 0.000, 15:10:54.706
18, -15423.23, -15665.20, -15492.06, -14774.89, 0.000, 0.000, 0.000, 15:10:54.707
19, -15107.21, -15315.38, -15121.86, -14388.67, 0.000, 0.000, 0.000, 15:10:54.742
20, -14826.75, -15093.28, -14889.72, -14118.46, 0.000, 0.000, 0.000, 15:10:54.742
21, -14717.36, -15029.97, -14815.42, -14038.45, 0.000, 0.000, 0.000, 15:10:54.743
22, -14711.29, -14100.34, -13882.21, -13088.56, 0.000, 0.000, 0.000, 15:10:54.747
23, -13822.08, -13266.64, -13028.98, -12225.14, 0.000, 0.000, 0.000, 15:10:54.752
24, -13030.89, -12501.32, -12269.09, -11452.70, 0.000, 0.000, 0.000, 15:10:54.754
25, -12352.91, -11838.48, -11615.35, -10777.99, 0.000, 0.000, 0.000, 15:10:54.755
26, -11736.30, -11259.56, -11023.67, -10182.25, 0.000, 0.000, 0.000, 15:10:54.757
27, -11168.14, -10726.29, -10503.37, -9642.16, 0.000, 0.000, 0.000, 15:10:54.819
28, -10670.86, -10254.13, -10016.28, -9146.94, 0.000, 0.000, 0.000, 15:10:54.820
29, -10226.91, -9851.74, -9600.40, -8724.74, 0.000, 0.000, 0.000, 15:10:54.820
30, -9833.20, -9485.05, -9236.02, -8360.91, 0.000, 0.000, 0.000, 15:10:54.820
31, -9492.55, -9155.71, -8903.21, -8022.46, 0.000, 0.000, 0.000, 15:10:54.899
32, -9156.58, -8844.21, -8584.54, -7688.95, 0.000, 0.000, 0.000, 15:10:54.899
33, -8881.89, -8587.27, -8324.61, -7434.32, 0.000, 0.000, 0.000, 15:10:54.919
34, -8623.50, -8354.28, -8089.00, -7193.24, 0.000, 0.000, 0.000, 15:10:54.920
35, -8388.82, -8137.49, -7862.98, -6961.96, 0.000, 0.000, 0.000, 15:10:54.920
36, -8165.99, -7931.41, -7661.70, -6737.75, 0.000, 0.000, 0.000, 15:10:54.920
37, -7989.92, -7763.52, -7491.87, -6576.15, 0.000, 0.000, 0.000, 15:10:55.037
38, -7836.88, -7624.19, -7340.61, -6429.47, 0.000, 0.000, 0.000, 15:10:55.037
39, -7667.20, -7465.00, -7186.29, -6266.13, 0.000, 0.000, 0.000, 15:10:55.110
40, -7521.17, -7320.94, -7044.51, -6106.21, 0.000, 0.000, 0.000, 15:10:55.110
41, -7407.31, -7220.72, -6938.38, -6005.91, 0.000, 0.000, 0.000, 15:10:55.111
42, -7292.54, -7125.63, -6835.72, -5908.41, 0.000, 0.000, 0.000, 15:10:55.111
43, -7189.73, -7020.42, -6731.45, -5791.08, 0.000, 0.000, 0.000, 15:10:55.166
44, -7080.86, -6923.33, -6626.92, -5687.69, 0.000, 0.000, 0.000, 15:10:55.166
45, -7000.95, -6851.77, -6556.91, -5621.35, 0.000, 0.000, 0.000, 15:10:55.169
46, -6934.34, -6788.94, -6496.60, -5555.75, 0.000, 0.000, 0.000, 15:10:55.169
47, -6858.38, -6714.85, -6423.11, -5483.35, 0.000, 0.000, 0.000, 15:10:55.170
48, -6795.38, -6660.10, -6365.11, -5408.88, 0.000, 0.000, 0.000, 15:10:55.170
49, -6737.86, -6617.69, -6316.33, -5367.30, 0.000, 0.000, 0.000, 15:10:55.179
50, -6691.95, -6571.30, -6272.35, -5326.61, 0.000, 0.000, 0.000, 15:10:55.180
51, -6644.78, -6527.16, -6219.77, -5270.98, 0.000, 0.000, 0.000, 15:10:55.181
52, -6582.34, -6469.45, -6158.74, -5200.22, 0.000, 0.000, 0.000, 15:10:55.182
53, -6542.55, -6437.18, -6128.22, -5179.98, 0.000, 0.000, 0.000, 15:10:55.182
54, -6516.31, -6409.05, -6107.35, -5154.06, 0.000, 0.000, 0.000, 15:10:55.183
55, -6478.70, -6372.62, -6071.26, -5111.55, 0.000, 0.000, 0.000, 15:10:55.183
56, -6447.76, -6348.16, -6034.38, -5073.36, 0.000, 0.000, 0.000, 15:10:55.183
57, -6423.12, -6334.94, -6015.22, -5061.94, 0.000, 0.000, 0.000, 15:10:55.184
58, -6394.76, -6308.90, -5991.19, -5039.49, 0.000, 0.000, 0.000, 15:10:55.185
59, -6369.42, -6279.53, -5962.23, -5000.24, 0.000, 0.000, 0.000, 15:10:55.185
60, -6346.47, -6257.58, -5940.06, -4973.49, 0.000, 0.000, 0.000, 15:10:55.186
61, -6330.82, -6245.59, -5930.62, -4961.93, 0.000, 0.000, 0.000, 15:10:55.200
62, -6318.24, -6236.87, -5921.69, -4957.57, 0.000, 0.000, 0.000, 15:10:55.201
63, -6296.44, -6209.75, -5893.98, -4924.75, 0.000, 0.000, 0.000, 15:10:55.214
64, -6269.23, -6189.71, -5864.26, -4891.76, 0.000, 0.000, 0.000, 15:10:55.218
65, -6257.30, -6174.79, -5860.98, -4889.92, 0.000, 0.000, 0.000, 15:10:55.218
66, -6245.62, -6170.17, -5847.50, -4879.84, 0.000, 0.000, 0.000, 15:10:55.228
67, -6226.81, -6144.67, -5827.87, -4858.92, 0.000, 0.000, 0.000, 15:10:55.229
68, -6208.22, -6130.38, -5806.55, -4835.77, 0.000, 0.000, 0.000, 15:10:55.229
69, -6208.78, -6128.28, -5808.86, -4842.77, 0.000, 0.000, 0.000, 15:10:55.229
70, -6213.18, -6136.46, -5814.74, -4852.91, 0.000, 0.000, 0.000, 15:10:55.229
71, -6196.45, -6123.08, -5799.22, -4834.35, 0.000, 0.000, 0.000, 15:10:55.230
72, -6170.46, -6100.59, -5775.94, -4805.88, 0.000, 0.000, 0.000, 15:10:55.230
73, -6168.64, -6104.58, -5771.64, -4810.75, 0.000, 0.000, 0.000, 15:10:55.230
74, -6188.93, -6111.77, -5793.71, -4823.26, 0.000, 0.000, 0.000, 15:10:55.230
75, -6148.97, -6079.30, -5755.64, -4782.07, 0.000, 0.000, 0.000, 15:10:55.237
76, -6126.94, -6059.81, -5737.68, -4756.31, 0.000, 0.000, 0.000, 15:10:55.238
77, -6133.25, -6068.66, -5741.70, -4775.31, 0.000, 0.000, 0.000, 15:10:55.238
78, -6136.34, -6075.28, -5750.87, -4786.85, 0.000, 0.000, 0.000, 15:10:55.238
79, -6119.71, -6058.07, -5731.37, -4755.83, 0.000, 0.000, 0.000, 15:10:55.239
80, -6104.29, -6045.32, -5712.42, -4732.86, 0.000, 0.000, 0.000, 15:10:55.239
81, -6108.72, -6054.01, -5721.76, -4746.95, 0.000, 0.000, 0.000, 15:10:55.263
82, -6099.53, -6033.58, -5711.80, -4738.87, 0.000, 0.000, 0.000, 15:10:55.264
83, -6106.11, -6040.73, -5716.14, -4736.90, 0.000, 0.000, 0.000, 15:10:55.264
84, -6074.82, -6005.78, -5686.67, -4698.20, 0.000, 0.000, 0.000, 15:10:55.264
85, -6073.64, -6010.58, -5685.17, -4708.21, 0.000, 0.000, 0.000, 15:10:55.382
86, -6098.66, -6033.29, -5710.27, -4739.85, 0.000, 0.000, 0.000, 15:10:55.382
87, -6083.49, -6018.25, -5702.27, -4718.86, 0.000, 0.000, 0.000, 15:10:55.387
88, -6075.56, -6008.38, -5689.24, -4703.51, 0.000, 0.000, 0.000, 15:10:55.387
89, -6079.59, -6011.75, -5695.52, -4716.81, 0.000, 0.000, 0.000, 15:10:55.387
90, -6059.96, -5985.71, -5675.23, -4699.47, 0.000, 0.000, 0.000, 15:10:55.388
91, -6088.94, -6019.08, -5703.69, -4717.27, 0.000, 0.000, 0.000, 15:10:55.445
92, -6068.75, -5996.85, -5670.10, -4687.94, 0.000, 0.000, 0.000, 15:10:55.446
93, -6071.31, -6002.83, -5680.66, -4704.24, 0.000, 0.000, 0.000, 15:10:55.447
94, -6055.29, -5990.53, -5669.99, -4697.22, 0.000, 0.000, 0.000, 15:10:55.447
95, -6053.73, -5990.61, -5667.46, -4690.76, 0.000, 0.000, 0.000, 15:10:55.449
96, -6065.21, -5995.70, -5670.45, -4691.64, 0.000, 0.000, 0.000, 15:10:55.462
97, -6067.32, -5997.24, -5678.66, -4702.60, 0.000, 0.000, 0.000, 15:10:55.549
98, -6057.55, -5985.38, -5670.28, -4694.23, 0.000, 0.000, 0.000, 15:10:55.549
99, -6061.84, -5986.18, -5675.80, -4685.69, 0.000, 0.000, 0.000, 15:10:55.555
100, -6054.91, -5980.58, -5668.90, -4671.67, 0.000, 0.000, 0.000, 15:10:55.555
101, -6066.02, -6000.52, -5679.62, -4692.40, 0.000, 0.000, 0.000, 15:10:55.556
102, -6062.57, -6003.26, -5678.71, -4702.86, 0.000, 0.000, 0.000, 15:10:55.556
103, -6056.88, -5991.07, -5671.35, -4684.94, 0.000, 0.000, 0.000, 15:10:55.603
104, -6045.16, -5977.71, -5659.44, -4671.49, 0.000, 0.000, 0.000, 15:10:55.604
105, -6057.01, -5986.97, -5661.69, -4684.84, 0.000, 0.000, 0.000, 15:10:55.691
106, -6059.70, -5988.21, -5673.98, -4690.15, 0.000, 0.000, 0.000, 15:10:55.710
107, -6047.96, -5976.90, -5658.01, -4680.57, 0.000, 0.000, 0.000, 15:10:55.734
108, -6044.29, -5977.02, -5652.75, -4665.66, 0.000, 0.000, 0.000, 15:10:55.736
109, -6041.00, -5967.36, -5653.91, -4670.10, 0.000, 0.000, 0.000, 15:10:55.737
110, -6048.47, -5985.74, -5666.04, -4687.20, 0.000, 0.000, 0.000, 15:10:55.737
111, -6044.44, -5972.35, -5653.43, -4667.09, 0.000, 0.000, 0.000, 15:10:55.739
112, -6037.28, -5963.86, -5650.07, -4652.52, 0.000, 0.000, 0.000, 15:10:55.740
113, -6031.19, -5961.06, -5650.89, -4666.68, 0.000, 0.000, 0.000, 15:10:55.741
114, -6039.81, -5972.42, -5657.72, -4679.57, 0.000, 0.000, 0.000, 15:10:55.741
115, -6029.64, -5958.74, -5639.76, -4661.51, 0.000, 0.000, 0.000, 15:10:55.742
116, -6019.70, -5954.63, -5635.15, -4647.00, 0.000, 0.000, 0.000, 15:10:55.742
117, -6037.42, -5970.33, -5653.68, -4664.97, 0.000, 0.000, 0.000, 15:10:55.770
118, -6036.14, -5970.58, -5656.10, -4675.84, 0.000, 0.000, 0.000, 15:10:55.771
119, -6043.06, -5982.22, -5651.81, -4671.41, 0.000, 0.000, 0.000, 15:10:55.772
120, -6034.32, -5962.92, -5643.65, -4656.15, 0.000, 0.000, 0.000, 15:10:55.773
121, -6026.64, -5961.07, -5642.99, -4664.03, 0.000, 0.000, 0.000, 15:10:55.773
122, -6030.99, -5971.02, -5656.16, -4673.28, 0.000, 0.000, 0.000, 15:10:55.774
123, -6029.80, -5971.17, -5646.31, -4665.33, 0.000, 0.000, 0.000, 15:10:55.774
124, -6016.85, -5952.84, -5628.16, -4643.98, 0.000, 0.000, 0.000, 15:10:55.775
125, -6013.87, -5947.64, -5629.14, -4649.31, 0.000, 0.000, 0.000, 15:10:55.775
126, -6032.91, -5970.99, -5645.83, -4673.92, 0.000, 0.000, 0.000, 15:10:55.776
127, -6031.33, -5961.97, -5639.64, -4656.21, 0.000, 0.000, 0.000, 15:10:55.777
128, -6016.93, -5945.28, -5623.85, -4638.24, 0.000, 0.000, 0.000, 15:10:55.778
129, -6032.98, -5961.88, -5636.71, -4657.51, 0.000, 0.000, 0.000, 15:10:55.779
130, -6041.52, -5970.05, -5642.51, -4665.54, 0.000, 0.000, 0.000, 15:10:55.780
131, -6027.18, -5958.85, -5632.64, -4648.01, 0.000, 0.000, 0.000, 15:10:55.780
132, -6015.60, -5951.76, -5627.05, -4633.77, 0.000, 0.000, 0.000, 15:10:55.780
133, -6025.61, -5961.42, -5637.81, -4651.32, 0.000, 0.000, 0.000, 15:10:55.781
134, -6039.12, -5967.98, -5645.31, -4661.06, 0.000, 0.000, 0.000, 15:10:55.781
135, -6029.62, -5964.43, -5643.77, -4644.21, 0.000, 0.000, 0.000, 15:10:55.793
136, -6018.25, -5951.41, -5625.37, -4633.85, 0.000, 0.000, 0.000, 15:10:55.794
137, -6033.49, -5965.52, -5640.38, -4657.35, 0.000, 0.000, 0.000, 15:10:55.803
138, -6035.19, -5970.00, -5650.28, -4663.78, 0.000, 0.000, 0.000, 15:10:55.806
139, -6034.12, -5965.72, -5643.98, -4655.66, 0.000, 0.000, 0.000, 15:10:55.807
140, -6007.85, -5941.57, -5618.33, -4627.73, 0.000, 0.000, 0.000, 15:10:55.807
141, -6021.27, -5950.66, -5629.65, -4649.63, 0.000, 0.000, 0.000, 15:10:55.807
142, -6017.93, -5959.94, -5635.68, -4652.84, 0.000, 0.000, 0.000, 15:10:55.807
143, -6014.91, -5955.05, -5627.28, -4638.24, 0.000, 0.000, 0.000, 15:10:55.844
144, -6019.46, -5952.89, -5630.31, -4633.83, 0.000, 0.000, 0.000, 15:10:55.847
145, -6012.77, -5950.27, -5626.50, -4638.45, 0.000, 0.000, 0.000, 15:10:55.847
146, -6024.24, -5964.37, -5639.01, -4657.23, 0.000, 0.000, 0.000, 15:10:55.847
147, -6011.58, -5948.20, -5621.89, -4632.77, 0.000, 0.000, 0.000, 15:10:55.848
148, -6001.25, -5942.65, -5612.52, -4622.03, 0.000, 0.000, 0.000, 15:10:55.848
149, -6014.14, -5955.73, -5624.98, -4642.44, 0.000, 0.000, 0.000, 15:10:55.848
150, -6017.27, -5956.08, -5626.87, -4650.27, 0.000, 0.000, 0.000, 15:10:55.848
151, -6004.50, -5939.63, -5612.21, -4629.91, 0.000, 0.000, 0.000, 15:10:55.848
152, -6005.48, -5940.31, -5613.06, -4619.50, 0.000, 0.000, 0.000, 15:10:55.848
153, -6008.09, -5939.88, -5621.29, -4628.98, 0.000, 0.000, 0.000, 15:10:55.849
154, -6015.97, -5952.99, -5631.42, -4643.63, 0.000, 0.000, 0.000, 15:10:55.849
155, -6009.69, -5944.80, -5617.95, -4620.14, 0.000, 0.000, 0.000, 15:10:55.849
156, -5995.79, -5930.80, -5607.17, -4610.90, 0.000, 0.000, 0.000, 15:10:55.849
157, -6011.58, -5946.29, -5624.24, -4636.13, 0.000, 0.000, 0.000, 15:10:55.849
158, -6015.27, -5940.39, -5631.35, -4636.74, 0.000, 0.000, 0.000, 15:10:55.850
159, -6005.65, -5936.40, -5627.80, -4624.44, 0.000, 0.000, 0.000, 15:10:55.850
160, -5998.65, -5929.05, -5607.87, -4615.10, 0.000, 0.000, 0.000, 15:10:55.850
161, -6017.34, -5953.42, -5629.48, -4635.99, 0.000, 0.000, 0.000, 15:10:55.855
162, -6019.05, -5952.14, -5629.10, -4643.40, 0.000, 0.000, 0.000, 15:10:55.857
163, -6018.55, -5953.97, -5625.44, -4635.48, 0.000, 0.000, 0.000, 15:10:55.857
164, -5998.21, -5939.46, -5605.44, -4615.22, 0.000, 0.000, 0.000, 15:10:55.857
165, -6015.76, -5953.78, -5626.09, -4629.81, 0.000, 0.000, 0.000, 15:10:55.858
166, -6017.41, -5956.35, -5634.41, -4643.16, 0.000, 0.000, 0.000, 15:10:55.858
167, -6013.01, -5951.86, -5617.57, -4633.92, 0.000, 0.000, 0.000, 15:10:55.858
168, -6000.35, -5939.80, -5613.97, -4617.58, 0.000, 0.000, 0.000, 15:10:55.858
169, -6009.19, -5941.29, -5620.79, -4632.77, 0.000, 0.000, 0.000, 15:10:55.858
170, -6018.76, -5960.22, -5628.69, -4646.10, 0.000, 0.000, 0.000, 15:10:55.859
171, -6006.64, -5944.78, -5619.01, -4628.59, 0.000, 0.000, 0.000, 15:10:55.859
172, -5996.05, -5933.31, -5604.40, -4614.14, 0.000, 0.000, 0.000, 15:10:55.859
173, -6014.51, -5958.41, -5629.90, -4640.41, 0.000, 0.000, 0.000, 15:10:55.859
174, -6013.43, -5951.65, -5624.84, -4644.26, 0.000, 0.000, 0.000, 15:10:55.859
175, -6011.00, -5950.24, -5618.68, -4635.68, 0.000, 0.000, 0.000, 15:10:55.859
176, -5998.97, -5936.44, -5615.36, -4624.86, 0.000, 0.000, 0.000, 15:10:55.860
177, -6006.52, -5942.09, -5622.06, -4629.53, 0.000, 0.000, 0.000, 15:10:55.860
178, -6011.95, -5947.59, -5625.94, -4643.24, 0.000, 0.000, 0.000, 15:10:55.860
179, -6008.12, -5944.39, -5620.58, -4630.58, 0.000, 0.000, 0.000, 15:10:55.860
180, -5993.92, -5929.18, -5606.86, -4616.39, 0.000, 0.000, 0.000, 15:10:55.860
181, -5997.87, -5933.34, -5616.96, -4626.01, 0.000, 0.000, 0.000, 15:10:55.861
182, -6010.05, -5951.34, -5628.32, -4638.01, 0.000, 0.000, 0.000, 15:10:55.861
183, -6004.82, -5938.16, -5616.03, -4626.21, 0.000, 0.000, 0.000, 15:10:55.861
184, -5986.44, -5918.06, -5598.05, -4609.34, 0.000, 0.000, 0.000, 15:10:55.861
185, -5996.52, -5933.15, -5615.82, -4623.62, 0.000, 0.000, 0.000, 15:10:55.861
186, -6016.73, -5953.11, -5635.40, -4643.43, 0.000, 0.000, 0.000, 15:10:55.861
187, -6002.66, -5937.04, -5615.50, -4623.82, 0.000, 0.000, 0.000, 15:10:55.862
188, -5999.77, -5931.04, -5613.04, -4616.58, 0.000, 0.000, 0.000, 15:10:55.862
189, -6005.62, -5939.99, -5620.39, -4629.20, 0.000, 0.000, 0.000, 15:10:55.862
190, -6006.01, -5939.30, -5619.36, -4636.84, 0.000, 0.000, 0.000, 15:10:55.862
191, -6006.24, -5933.06, -5615.52, -4620.74, 0.000, 0.000, 0.000, 15:10:55.862
192, -6000.27, -5930.84, -5607.82, -4614.37, 0.000, 0.000, 0.000, 15:10:55.863
193, -5991.21, -5931.42, -5603.86, -4620.70, 0.000, 0.000, 0.000, 15:10:55.863
194, -6012.00, -5950.63, -5625.68, -4634.26, 0.000, 0.000, 0.000, 15:10:55.863
195, -5999.15, -5931.97, -5613.89, -4625.81, 0.000, 0.000, 0.000, 15:10:55.879
196, -5974.22, -5913.93, -5590.72, -4604.74, 0.000, 0.000, 0.000, 15:10:55.879
197, -6006.16, -5943.76, -5623.11, -4640.76, 0.000, 0.000, 0.000, 15:10:55.880
198, -6011.34, -5944.15, -5626.41, -4636.91, 0.000, 0.000, 0.000, 15:10:55.880
199, -6005.51, -5943.70, -5614.60, -4627.19, 0.000, 0.000, 0.000, 15:10:55.880
200, -5997.59, -5931.27, -5603.13, -4617.17, 0.000, 0.000, 0.000, 15:10:55.880
0, -2069.18, -2002.96, -1678.82, -1673.62, 0.000, 0.000, 0.000, 15:10:55.880
1, -2087.88, -2018.50, -1694.15, -1690.70, 0.000, 0.000, 0.000, 15:10:55.881
2, -2072.90, -1999.85, -1673.43, -1668.72, 0.000, 0.000, 0.000, 15:10:55.881
3, -2082.46, -2010.96, -1684.54, -1675.20, 0.000, 0.000, 0.000, 15:10:55.881
4, -2080.70, -2011.74, -1686.94, -1679.12, 0.000, 0.000, 0.000, 15:10:55.881
5, -2084.72, -2022.33, -1704.64, -1690.07, 0.000, 0.000, 0.000, 15:10:55.882
6, -2059.58, -1999.87, -1675.33, -1660.66, 0.000, 0.000, 0.000, 15:10:55.882
7, -2059.39, -1997.00, -1673.53, -1656.38, 0.000, 0.000, 0.000, 15:10:55.882
8, -2072.73, -2009.60, -1682.88, -1668.61, 0.000, 0.000, 0.000, 15:10:55.882
9, -2080.38, -2012.17, -1694.70, -1685.66, 0.000, 0.000, 0.000, 15:10:55.882
10, -2076.04, -2011.85, -1693.47, -1679.72, 0.000, 0.000, 0.000, 15:10:55.883
11, -2066.72, -1995.32, -1677.29, -1661.25, 0.000, 0.000, 0.000, 15:10:55.883
12, -2076.19, -2010.18, -1692.76, -1680.52, 0.000, 0.000, 0.000, 15:10:55.883
13, -2079.46, -2023.01, -1694.14, -1687.34, 0.000, 0.000, 0.000, 15:10:55.883
14, -2077.41, -2008.14, -1690.44, -1677.85, 0.000, 0.000, 0.000, 15:10:55.883
15, -2071.34, -1999.14, -1683.64, -1664.09, 0.000, 0.000, 0.000, 15:10:55.883
16, -2075.45, -2014.99, -1693.70, -1682.22, 0.000, 0.000, 0.000, 15:10:55.884
17, -2083.86, -2020.17, -1696.46, -1691.92, 0.000, 0.000, 0.000, 15:10:55.884
18, -2079.53, -2012.52, -1691.44, -1679.47, 0.000, 0.000, 0.000, 15:10:55.884
19, -2069.76, -2007.37, -1683.37, -1667.37, 0.000, 0.000, 0.000, 15:10:55.884
20, -2076.97, -2007.68, -1686.45, -1674.54, 0.000, 0.000, 0.000, 15:10:55.884
21, -2098.89, -2038.12, -1710.42, -1697.67, 0.000, 0.000, 0.000, 15:10:55.884
22, -2087.05, -2028.66, -1702.07, -1688.30, 0.000, 0.000, 0.000, 15:10:55.885
23, -2087.79, -2018.74, -1696.03, -1679.65, 0.000, 0.000, 0.000, 15:10:55.885
24, -2090.95, -2030.61, -1702.54, -1696.59, 0.000, 0.000, 0.000, 15:10:55.885
25, -2101.17, -2041.08, -1712.81, -1704.57, 0.000, 0.000, 0.000, 15:10:55.885
26, -2086.73, -2025.62, -1696.27, -1682.29, 0.000, 0.000, 0.000, 15:10:55.885
27, -2076.27, -2020.34, -1686.32, -1678.45, 0.000, 0.000, 0.000, 15:10:55.885
28, -2080.20, -2022.89, -1689.44, -1684.86, 0.000, 0.000, 0.000, 15:10:55.886
29, -2092.30, -2029.45, -1702.71, -1691.18, 0.000, 0.000, 0.000, 15:10:55.886
30, -2070.67, -2007.51, -1679.21, -1670.91, 0.000, 0.000, 0.000, 15:10:55.886
31, -2088.35, -2018.96, -1692.24, -1678.70, 0.000, 0.000, 0.000, 15:10:55.887
32, -2078.68, -2009.16, -1685.52, -1676.48, 0.000, 0.000, 0.000, 15:10:55.887
33, -2087.10, -2017.98, -1694.47, -1685.98, 0.000, 0.000, 0.000, 15:10:55.887
34, -2079.44, -2003.58, -1688.50, -1670.64, 0.000, 0.000, 0.000, 15:10:55.887
35, -2062.93, -1991.45, -1669.27, -1658.06, 0.000, 0.000, 0.000, 15:10:55.887
36, -2067.55, -1998.88, -1682.01, -1674.03, 0.000, 0.000, 0.000, 15:10:55.887
37, -2077.68, -2007.81, -1692.98, -1680.28, 0.000, 0.000, 0.000, 15:10:55.888
38, -2075.35, -2009.76, -1690.30, -1674.72, 0.000, 0.000, 0.000, 15:10:55.888
39, -2066.50, -2000.81, -1673.56, -1661.18, 0.000, 0.000, 0.000, 15:10:55.888
40, -2066.93, -2004.02, -1675.57, -1666.42, 0.000, 0.000, 0.000, 15:10:55.888
41, -2083.84, -2026.21, -1699.00, -1689.48, 0.000, 0.000, 0.000, 15:10:55.888
42, -2065.46, -2001.72, -1677.44, -1665.98, 0.000, 0.000, 0.000, 15:10:55.888
43, -2068.43, -1997.05, -1672.02, -1667.43, 0.000, 0.000, 0.000, 15:10:55.889
44, -2077.42, -2007.25, -1690.51, -1676.44, 0.000, 0.000, 0.000, 15:10:55.889
45, -2081.04, -2011.54, -1693.43, -1676.96, 0.000, 0.000, 0.000, 15:10:55.889
46, -2061.58, -1997.31, -1670.27, -1663.73, 0.000, 0.000, 0.000, 15:10:55.892
47, -2057.34, -1990.97, -1669.28, -1658.76, 0.000, 0.000, 0.000, 15:10:55.893
48, -2063.07, -1994.80, -1678.79, -1668.67, 0.000, 0.000, 0.000, 15:10:55.893
49, -2079.31, -2014.12, -1694.92, -1686.13, 0.000, 0.000, 0.000, 15:10:55.912
50, -2059.57, -2001.27, -1680.06, -1667.57, 0.000, 0.000, 0.000, 15:10:55.912
51, -2056.60, -1988.82, -1670.40, -1656.51, 0.000, 0.000, 0.000, 15:10:55.913
52, -2068.18, -2000.41, -1679.76, -1672.60, 0.000, 0.000, 0.000, 15:10:55.913
53, -2074.29, -2016.48, -1689.42, -1686.46, 0.000, 0.000, 0.000, 15:10:55.917
54, -2065.05, -2005.52, -1681.24, -1672.93, 0.000, 0.000, 0.000, 15:10:55.920
55, -2058.67, -1998.87, -1668.93, -1664.92, 0.000, 0.000, 0.000, 15:10:55.921
56, -2081.91, -2020.87, -1690.63, -1687.04, 0.000, 0.000, 0.000, 15:10:55.922
57, -2089.54, -2027.66, -1700.33, -1695.52, 0.000, 0.000, 0.000, 15:10:55.923
58, -2068.78, -2002.16, -1675.96, -1669.15, 0.000, 0.000, 0.000, 15:10:55.923
59, -2069.23, -2002.88, -1676.27, -1663.06, 0.000, 0.000, 0.000, 15:10:55.924
60, -2073.87, -2014.40, -1684.83, -1681.26, 0.000, 0.000, 0.000, 15:10:55.925
61, -2074.55, -2015.83, -1693.63, -1685.03, 0.000, 0.000, 0.000, 15:10:55.926
62, -2072.37, -2013.20, -1684.54, -1679.27, 0.000, 0.000, 0.000, 15:10:55.926
63, -2067.90, -1999.75, -1677.58, -1668.70, 0.000, 0.000, 0.000, 15:10:55.926
64, -2077.44, -2012.22, -1693.33, -1682.65, 0.000, 0.000, 0.000, 15:10:55.927
65, -2074.37, -2006.21, -1687.59, -1670.08, 0.000, 0.000, 0.000, 15:10:55.927
66, -2073.29, -2002.05, -1684.81, -1672.22, 0.000, 0.000, 0.000, 15:10:55.927
67, -2064.87, -1987.63, -1667.49, -1659.49, 0.000, 0.000, 0.000, 15:10:55.928
68, -2083.22, -2015.73, -1692.16, -1678.81, 0.000, 0.000, 0.000, 15:10:55.928
69, -2077.86, -2005.28, -1688.63, -1673.90, 0.000, 0.000, 0.000, 15:10:55.978
70, -2064.39, -1995.47, -1676.07, -1660.93, 0.000, 0.000, 0.000, 15:10:55.978
71, -2063.56, -1990.81, -1677.45, -1659.06, 0.000, 0.000, 0.000, 15:10:55.978
72, -2066.26, -1998.50, -1674.04, -1667.77, 0.000, 0.000, 0.000, 15:10:55.978
73, -2085.67, -2016.43, -1695.88, -1685.97, 0.000, 0.000, 0.000, 15:10:56.011
74, -2067.09, -1993.74, -1678.01, -1672.09, 0.000, 0.000, 0.000, 15:10:56.011
75, -2058.22, -1990.78, -1676.49, -1661.02, 0.000, 0.000, 0.000, 15:10:56.012
76, -2069.32, -2006.17, -1684.54, -1673.19, 0.000, 0.000, 0.000, 15:10:56.012
77, -2076.36, -2010.93, -1683.00, -1679.07, 0.000, 0.000, 0.000, 15:10:56.012
78, -2071.29, -2005.13, -1682.33, -1663.72, 0.000, 0.000, 0.000, 15:10:56.012
79, -2044.90, -1977.70, -1659.46, -1646.71, 0.000, 0.000, 0.000, 15:10:56.074
80, -2078.08, -2015.40, -1695.30, -1685.86, 0.000, 0.000, 0.000, 15:10:56.075
81, -2086.85, -2022.83, -1697.60, -1690.37, 0.000, 0.000, 0.000, 15:10:56.078
82, -2074.93, -2005.31, -1682.46, -1668.23, 0.000, 0.000, 0.000, 15:10:56.078
83, -2064.85, -1994.48, -1669.29, -1662.92, 0.000, 0.000, 0.000, 15:10:56.079
84, -2075.75, -2010.05, -1689.35, -1676.20, 0.000, 0.000, 0.000, 15:10:56.080
85, -2088.32, -2018.65, -1698.66, -1681.32, 0.000, 0.000, 0.000, 15:10:56.131
86, -2071.53, -2002.03, -1678.75, -1661.60, 0.000, 0.000, 0.000, 15:10:56.131
87, -2068.71, -2003.31, -1681.40, -1660.42, 0.000, 0.000, 0.000, 15:10:56.139
88, -2067.60, -1990.72, -1681.40, -1666.21, 0.000, 0.000, 0.000, 15:10:56.141
89, -2089.78, -2019.67, -1703.83, -1696.57, 0.000, 0.000, 0.000, 15:10:56.141
90, -2078.64, -2014.79, -1692.37, -1684.91, 0.000, 0.000, 0.000, 15:10:56.142
91, -2078.30, -2002.42, -1686.99, -1672.32, 0.000, 0.000, 0.000, 15:10:56.158
92, -2083.73, -2017.51, -1692.85, -1683.72, 0.000, 0.000, 0.000, 15:10:56.160
93, -2098.33, -2033.42, -1709.80, -1695.18, 0.000, 0.000, 0.000, 15:10:56.168
94, -2088.70, -2019.86, -1697.41, -1683.03, 0.000, 0.000, 0.000, 15:10:56.169
95, -2062.00, -1993.57, -1675.12, -1656.66, 0.000, 0.000, 0.000, 15:10:56.169
96, -2077.04, -2008.44, -1684.48, -1675.42, 0.000, 0.000, 0.000, 15:10:56.169
97, -2093.44, -2025.97, -1700.51, -1690.01, 0.000, 0.000, 0.000, 15:10:56.327
98, -2076.66, -2003.73, -1676.56, -1673.87, 0.000, 0.000, 0.000, 15:10:56.327
99, -2068.06, -1998.59, -1677.95, -1666.35, 0.000, 0.000, 0.000, 15:10:56.354
100, -2083.25, -2023.21, -1694.25, -1688.65, 0.000, 0.000, 0.000, 15:10:56.355
101, -2091.52, -2029.51, -1700.62, -1691.98, 0.000, 0.000, 0.000, 15:10:56.356
102, -2067.70, -2000.70, -1674.14, -1664.47, 0.000, 0.000, 0.000, 15:10:56.356
103, -2050.16, -1981.40, -1663.08, -1651.56, 0.000, 0.000, 0.000, 15:10:56.384
104, -2065.66, -2001.78, -1681.53, -1668.61, 0.000, 0.000, 0.000, 15:10:56.384
105, -2067.73, -2009.20, -1685.57, -1673.73, 0.000, 0.000, 0.000, 15:10:56.397
106, -2063.63, -1996.41, -1674.01, -1662.58, 0.000, 0.000, 0.000, 15:10:56.398
107, -2062.12, -1995.23, -1673.62, -1662.23, 0.000, 0.000, 0.000, 15:10:56.399
108, -2064.89, -1996.97, -1672.73, -1666.89, 0.000, 0.000, 0.000, 15:10:56.399
109, -2073.36, -2010.21, -1691.63, -1677.53, 0.000, 0.000, 0.000, 15:10:56.424
110, -2071.49, -2008.77, -1681.56, -1667.07, 0.000, 0.000, 0.000, 15:10:56.424
111, -2057.83, -1986.55, -1666.65, -1652.48, 0.000, 0.000, 0.000, 15:10:56.444
112, -2078.61, -2013.12, -1692.18, -1679.69, 0.000, 0.000, 0.000, 15:10:56.444
113, -2068.99, -2007.10, -1681.50, -1670.00, 0.000, 0.000, 0.000, 15:10:56.445
114, -2067.52, -2007.14, -1682.93, -1674.52, 0.000, 0.000, 0.000, 15:10:56.449
115, -2051.34, -1982.89, -1668.90, -1643.23, 0.000, 0.000, 0.000, 15:10:56.479
116, -2073.32, -2005.30, -1687.64, -1666.10, 0.000, 0.000, 0.000, 15:10:56.479
117, -2083.12, -2017.66, -1689.07, -1682.35, 0.000, 0.000, 0.000, 15:10:56.503
118, -2065.96, -1993.98, -1673.74, -1658.84, 0.000, 0.000, 0.000, 15:10:56.504
119, -2059.34, -1993.75, -1671.72, -1655.05, 0.000, 0.000, 0.000, 15:10:56.504
120, -2066.60, -1998.94, -1679.44, -1668.18, 0.000, 0.000, 0.000, 15:10:56.505
121, -2073.34, -2009.11, -1688.40, -1668.78, 0.000, 0.000, 0.000, 15:10:56.506
122, -2074.57, -2003.95, -1682.05, -1666.21, 0.000, 0.000, 0.000, 15:10:56.506
123, -2059.19, -1993.61, -1663.90, -1652.61, 0.000, 0.000, 0.000, 15:10:56.507
124, -2066.04, -2002.02, -1683.19, -1673.45, 0.000, 0.000, 0.000, 15:10:56.507
125, -2077.05, -2011.41, -1686.41, -1677.74, 0.000, 0.000, 0.000, 15:10:56.508
126, -2069.17, -2000.89, -1681.69, -1672.24, 0.000, 0.000, 0.000, 15:10:56.508
127, -2048.22, -1983.52, -1661.73, -1651.08, 0.000, 0.000, 0.000, 15:10:56.508
128, -2062.95, -1996.37, -1677.20, -1668.38, 0.000, 0.000, 0.000, 15:10:56.509
129, -2067.81, -2004.86, -1686.35, -1674.23, 0.000, 0.000, 0.000, 15:10:56.510
130, -2068.47, -2006.81, -1681.34, -1670.83, 0.000, 0.000, 0.000, 15:10:56.511
131, -2052.89, -1992.84, -1660.83, -1658.57, 0.000, 0.000, 0.000, 15:10:56.513
132, -2064.16, -2002.87, -1676.79, -1673.39, 0.000, 0.000, 0.000, 15:10:56.513
133, -2074.14, -2017.11, -1693.20, -1686.67, 0.000, 0.000, 0.000, 15:10:56.529
134, -2068.93, -2003.84, -1683.76, -1668.32, 0.000, 0.000, 0.000, 15:10:56.529
135, -2053.37, -1992.51, -1665.65, -1657.30, 0.000, 0.000, 0.000, 15:10:56.610
136, -2078.26, -2016.63, -1693.62, -1684.52, 0.000, 0.000, 0.000, 15:10:56.610
137, -2084.92, -2025.07, -1696.22, -1686.60, 0.000, 0.000, 0.000, 15:10:56.611
138, -2068.33, -2001.41, -1679.85, -1668.51, 0.000, 0.000, 0.000, 15:10:56.611
139, -2061.89, -1993.51, -1675.47, -1663.88, 0.000, 0.000, 0.000, 15:10:56.640
140, -2068.48, -2002.57, -1682.43, -1669.22, 0.000, 0.000, 0.000, 15:10:56.641
141, -2073.84, -2010.93, -1685.14, -1672.93, 0.000, 0.000, 0.000, 15:10:56.734
142, -2060.76, -1993.44, -1672.25, -1656.03, 0.000, 0.000, 0.000, 15:10:56.734
143, -2052.23, -1990.50, -1661.81, -1651.58, 0.000, 0.000, 0.000, 15:10:56.735
144, -2067.17, -2007.77, -1682.45, -1670.43, 0.000, 0.000, 0.000, 15:10:56.735
145, -2072.71, -2012.66, -1684.86, -1672.84, 0.000, 0.000, 0.000, 15:10:56.792
146, -2069.54, -2000.70, -1671.52, -1657.84, 0.000, 0.000, 0.000, 15:10:56.795
147, -2068.53, -1992.87, -1672.00, -1648.67, 0.000, 0.000, 0.000, 15:10:56.818
148, -2073.81, -2000.52, -1678.16, -1666.43, 0.000, 0.000, 0.000, 15:10:56.819
149, -2082.06, -2004.81, -1689.87, -1672.76, 0.000, 0.000, 0.000, 15:10:56.819
150, -2076.90, -2000.51, -1682.85, -1664.64, 0.000, 0.000, 0.000, 15:10:56.820
151, -2066.88, -1991.47, -1668.23, -1657.23, 0.000, 0.000, 0.000, 15:10:56.820
152, -2071.22, -2003.51, -1682.57, -1673.45, 0.000, 0.000, 0.000, 15:10:56.820
153, -2073.52, -2013.08, -1690.11, -1679.83, 0.000, 0.000, 0.000, 15:10:56.830
154, -2058.78, -1992.62, -1675.26, -1660.80, 0.000, 0.000, 0.000, 15:10:56.831
155, -2040.19, -1973.59, -1650.98, -1638.62, 0.000, 0.000, 0.000, 15:10:56.831
156, -2072.62, -2007.11, -1684.12, -1665.14, 0.000, 0.000, 0.000, 15:10:56.831
157, -2070.51, -2012.15, -1680.59, -1674.59, 0.000, 0.000, 0.000, 15:10:56.843
158, -2059.96, -1992.81, -1671.56, -1660.48, 0.000, 0.000, 0.000, 15:10:56.843
159, -2068.40, -1999.43, -1681.24, -1666.01, 0.000, 0.000, 0.000, 15:10:56.888
160, -2068.12, -2001.66, -1681.48, -1672.17, 0.000, 0.000, 0.000, 15:10:56.888
161, -2075.50, -2020.27, -1699.20, -1690.72, 0.000, 0.000, 0.000, 15:10:56.888
162, -2082.01, -2017.17, -1693.82, -1689.02, 0.000, 0.000, 0.000, 15:10:56.888
163, -2065.46, -1994.46, -1674.16, -1668.30, 0.000, 0.000, 0.000, 15:10:56.889
164, -2069.67, -2007.09, -1683.45, -1678.85, 0.000, 0.000, 0.000, 15:10:56.889
165, -2090.50, -2027.23, -1702.94, -1696.80, 0.000, 0.000, 0.000, 15:10:56.908
166, -2074.50, -2008.99, -1677.95, -1672.55, 0.000, 0.000, 0.000, 15:10:56.908
167, -2077.05, -2013.03, -1683.25, -1673.92, 0.000, 0.000, 0.000, 15:10:56.908
168, -2079.03, -2020.97, -1687.24, -1680.71, 0.000, 0.000, 0.000, 15:10:56.909
169, -2098.96, -2029.89, -1701.93, -1688.99, 0.000, 0.000, 0.000, 15:10:57.002
170, -2080.60, -2009.79, -1685.67, -1673.90, 0.000, 0.000, 0.000, 15:10:57.002
171, -2076.96, -2006.38, -1686.20, -1668.00, 0.000, 0.000, 0.000, 15:10:57.002
172, -2070.10, -2003.75, -1672.11, -1670.04, 0.000, 0.000, 0.000, 15:10:57.002
173, -2086.78, -2019.35, -1690.30, -1685.90, 0.000, 0.000, 0.000, 15:10:57.008
174, -2076.57, -2017.56, -1685.97, -1674.81, 0.000, 0.000, 0.000, 15:10:57.008
175, -2062.24, -1997.10, -1669.02, -1650.01, 0.000, 0.000, 0.000, 15:10:57.009
176, -2071.75, -2015.28, -1681.14, -1668.19, 0.000, 0.000, 0.000, 15:10:57.010
177, -2087.02, -2024.94, -1691.34, -1688.54, 0.000, 0.000, 0.000, 15:10:57.010
178, -2084.23, -2019.40, -1682.71, -1676.52, 0.000, 0.000, 0.000, 15:10:57.011
179, -2066.49, -1997.22, -1663.95, -1656.92, 0.000, 0.000, 0.000, 15:10:57.011
180, -2072.19, -2008.88, -1678.28, -1671.79, 0.000, 0.000, 0.000, 15:10:57.011
181, -2077.18, -2013.95, -1688.05, -1680.74, 0.000, 0.000, 0.000, 15:10:57.011
182, -2074.91, -2009.64, -1676.73, -1668.41, 0.000, 0.000, 0.000, 15:10:57.012
183, -2062.43, -1998.03, -1661.42, -1656.51, 0.000, 0.000, 0.000, 15:10:57.019
184, -2057.54, -2004.79, -1668.84, -1668.58, 0.000, 0.000, 0.000, 15:10:57.019
185, -2071.53, -2016.12, -1692.34, -1679.18, 0.000, 0.000, 0.000, 15:10:57.019
186, -2068.21, -2017.10, -1678.42, -1672.10, 0.000, 0.000, 0.000, 15:10:57.019
187, -2053.55, -1996.74, -1666.31, -1651.87, 0.000, 0.000, 0.000, 15:10:57.019
188, -2074.30, -2012.50, -1687.32, -1674.31, 0.000, 0.000, 0.000, 15:10:57.019
189, -2077.48, -2019.84, -1698.15, -1684.76, 0.000, 0.000, 0.000, 15:10:57.020
190, -2070.65, -2008.89, -1683.96, -1670.11, 0.000, 0.000, 0.000, 15:10:57.020
191, -2050.10, -1988.70, -1663.09, -1645.49, 0.000, 0.000, 0.000, 15:10:57.020
192, -2076.22, -2015.53, -1686.53, -1668.66, 0.000, 0.000, 0.000, 15:10:57.020
193, -2086.01, -2018.82, -1692.69, -1681.74, 0.000, 0.000, 0.000, 15:10:57.020
194, -2079.46, -2017.69, -1688.08, -1676.56, 0.000, 0.000, 0.000, 15:10:57.020
195, -2051.41, -1994.25, -1659.36, -1652.24, 0.000, 0.000, 0.000, 15:10:57.023
196, -2071.60, -2009.89, -1686.44, -1672.98, 0.000, 0.000, 0.000, 15:10:57.027
197, -2076.33, -2016.98, -1687.07, -1673.06, 0.000, 0.000, 0.000, 15:10:57.038
198, -2065.41, -2008.10, -1668.03, -1665.67, 0.000, 0.000, 0.000, 15:10:57.039
199, -2059.70, -1992.20, -1664.23, -1651.40, 0.000, 0.000, 0.000, 15:10:57.039
200, -2059.39, -1993.23, -1669.38, -1659.78, 0.000, 0.000, 0.000, 15:10:57.039
0, -2068.83, -2003.57, -1677.65, -1658.72, 0.000, 0.000, 0.000, 15:10:57.039
1, -2074.32, -2006.16, -1675.74, -1660.29, 0.000, 0.000, 0.000, 15:10:57.040
2, -2056.80, -1987.14, -1663.01, -1647.39, 0.000, 0.000, 0.000, 15:10:57.040
3, -2064.58, -2001.51, -1670.79, -1659.92, 0.000, 0.000, 0.000, 15:10:57.040
4, -2072.44, -2014.43, -1682.01, -1673.51, 0.000, 0.000, 0.000, 15:10:57.040
5, -2067.40, -2003.56, -1675.67, -1664.76, 0.000, 0.000, 0.000, 15:10:57.040
6, -2045.32, -1972.73, -1652.16, -1637.11, 0.000, 0.000, 0.000, 15:10:57.040
7, -2063.25, -1991.96, -1666.41, -1656.34, 0.000, 0.000, 0.000, 15:10:57.041
8, -2073.21, -2014.03, -1679.36, -1670.45, 0.000, 0.000, 0.000, 15:10:57.041
9, -2043.76, -1974.10, -1654.01, -1642.47, 0.000, 0.000, 0.000, 15:10:57.042
10, -2044.71, -1973.15, -1653.79, -1642.06, 0.000, 0.000, 0.000, 15:10:57.042
11, -2060.52, -1998.58, -1673.06, -1669.22, 0.000, 0.000, 0.000, 15:10:57.042
12, -2082.07, -2015.53, -1693.57, -1682.88, 0.000, 0.000, 0.000, 15:10:57.042
13, -2070.34, -1997.51, -1682.66, -1667.55, 0.000, 0.000, 0.000, 15:10:57.042
14, -2042.11, -1977.79, -1651.84, -1644.37, 0.000, 0.000, 0.000, 15:10:57.043
15, -2066.81, -1999.26, -1684.15, -1669.31, 0.000, 0.000, 0.000, 15:10:57.043
16, -2071.95, -2002.86, -1680.75, -1667.85, 0.000, 0.000, 0.000, 15:10:57.043
17, -2069.51, -2006.52, -1683.02, -1664.94, 0.000, 0.000, 0.000, 15:10:57.043
18, -2047.71, -1979.34, -1663.32, -1645.78, 0.000, 0.000, 0.000, 15:10:57.043
19, -2068.49, -1998.50, -1678.48, -1664.77, 0.000, 0.000, 0.000, 15:10:57.044
20, -2073.02, -2007.58, -1689.50, -1671.51, 0.000, 0.000, 0.000, 15:10:57.044
21, -2048.72, -1988.39, -1658.32, -1651.32, 0.000, 0.000, 0.000, 15:10:57.044
22, -2058.47, -1993.00, -1673.81, -1663.15, 0.000, 0.000, 0.000, 15:10:57.044
23, -2078.94, -2014.41, -1696.30, -1687.47, 0.000, 0.000, 0.000, 15:10:57.044
24, -2070.63, -2009.59, -1688.38, -1679.52, 0.000, 0.000, 0.000, 15:10:57.045
25, -2066.61, -2000.60, -1683.97, -1667.43, 0.000, 0.000, 0.000, 15:10:57.045
26, -2066.82, -1987.52, -1679.77, -1653.28, 0.000, 0.000, 0.000, 15:10:57.045
27, -2076.56, -2008.59, -1689.45, -1676.51, 0.000, 0.000, 0.000, 15:10:57.045
28, -2084.50, -2018.06, -1700.18, -1685.56, 0.000, 0.000, 0.000, 15:10:57.045
29, -2063.32, -1991.74, -1672.92, -1659.07, 0.000, 0.000, 0.000, 15:10:57.045
30, -2055.59, -1987.83, -1665.21, -1652.14, 0.000, 0.000, 0.000, 15:10:57.045
31, -2066.21, -1998.17, -1680.64, -1662.19, 0.000, 0.000, 0.000, 15:10:57.046
32, -2069.66, -2004.18, -1688.73, -1670.43, 0.000, 0.000, 0.000, 15:10:57.046
33, -2069.14, -1995.27, -1675.48, -1663.70, 0.000, 0.000, 0.000, 15:10:57.046
34, -2054.39, -1984.06, -1656.50, -1647.50, 0.000, 0.000, 0.000, 15:10:57.046
35, -2082.86, -2017.14, -1689.72, -1682.49, 0.000, 0.000, 0.000, 15:10:57.046
36, -2077.65, -2014.79, -1694.54, -1684.84, 0.000, 0.000, 0.000, 15:10:57.047
37, -2058.57, -1989.85, -1670.81, -1663.17, 0.000, 0.000, 0.000, 15:10:57.047
38, -2078.38, -2018.34, -1688.57, -1677.38, 0.000, 0.000, 0.000, 15:10:57.047
39, -2065.42, -1997.81, -1677.75, -1666.05, 0.000, 0.000, 0.000, 15:10:57.047
40, -2074.73, -2011.21, -1684.54, -1677.53, 0.000, 0.000, 0.000, 15:10:57.047
41, -2070.65, -2006.05, -1680.32, -1664.94, 0.000, 0.000, 0.000, 15:10:57.047
42, -2053.56, -1992.43, -1666.92, -1652.84, 0.000, 0.000, 0.000, 15:10:57.048
43, -2064.32, -2006.94, -1683.27, -1668.48, 0.000, 0.000, 0.000, 15:10:57.048
44, -2077.50, -2018.73, -1688.74, -1675.72, 0.000, 0.000, 0.000, 15:10:57.048
45, -2074.63, -2008.03, -1682.46, -1669.45, 0.000, 0.000, 0.000, 15:10:57.174
46, -2069.07, -2001.56, -1678.62, -1664.18, 0.000, 0.000, 0.000, 15:10:57.174
47, -2073.18, -2008.05, -1684.18, -1673.25, 0.000, 0.000, 0.000, 15:10:57.174
48, -2069.52, -2006.18, -1677.92, -1666.18, 0.000, 0.000, 0.000, 15:10:57.174
49, -2044.70, -1982.92, -1658.62, -1643.73, 0.000, 0.000, 0.000, 15:10:57.174
50, -2071.23, -2008.70, -1683.08, -1670.32, 0.000, 0.000, 0.000, 15:10:57.174
51, -2071.19, -2004.81, -1684.16, -1670.01, 0.000, 0.000, 0.000, 15:10:57.174
52, -2072.56, -2015.33, -1685.60, -1674.70, 0.000, 0.000, 0.000, 15:10:57.175
53, -2062.05, -2003.17, -1673.46, -1665.45, 0.000, 0.000, 0.000, 15:10:57.175
54, -2041.33, -1982.25, -1656.20, -1644.22, 0.000, 0.000, 0.000, 15:10:57.175
55, -2058.43, -1991.67, -1676.68, -1654.76, 0.000, 0.000, 0.000, 15:10:57.176
56, -2069.78, -2007.81, -1685.84, -1671.26, 0.000, 0.000, 0.000, 15:10:57.176
57, -2053.02, -1987.24, -1668.62, -1654.07, 0.000, 0.000, 0.000, 15:10:57.176
58, -2038.69, -1975.21, -1658.20, -1640.16, 0.000, 0.000, 0.000, 15:10:57.176
59, -2058.14, -2000.90, -1680.55, -1663.25, 0.000, 0.000, 0.000, 15:10:57.176
60, -2058.82, -2004.76, -1683.99, -1669.12, 0.000, 0.000, 0.000, 15:10:57.176
61, -2063.41, -1994.67, -1680.58, -1664.71, 0.000, 0.000, 0.000, 15:10:57.176
62, -2052.07, -1989.52, -1675.94, -1660.53, 0.000, 0.000, 0.000, 15:10:57.176
63, -2057.55, -1992.31, -1676.42, -1663.44, 0.000, 0.000, 0.000, 15:10:57.180
64, -2046.39, -1979.14, -1661.86, -1651.80, 0.000, 0.000, 0.000, 15:10:57.180
65, -2053.86, -1988.10, -1670.32, -1658.21, 0.000, 0.000, 0.000, 15:10:57.181
66, -2049.27, -1983.95, -1662.91, -1651.22, 0.000, 0.000, 0.000, 15:10:57.181
67, -2055.03, -1985.81, -1667.72, -1653.90, 0.000, 0.000, 0.000, 15:10:57.182
68, -2058.22, -1993.97, -1681.59, -1666.03, 0.000, 0.000, 0.000, 15:10:57.183
69, -2043.33, -1978.36, -1660.82, -1645.89, 0.000, 0.000, 0.000, 15:10:57.183
70, -2050.41, -1981.13, -1664.80, -1653.23, 0.000, 0.000, 0.000, 15:10:57.184
71, -2056.25, -1985.33, -1679.00, -1662.13, 0.000, 0.000, 0.000, 15:10:57.184
72, -2051.24, -1988.79, -1672.75, -1660.41, 0.000, 0.000, 0.000, 15:10:57.184
73, -2049.41, -1980.07, -1664.46, -1647.68, 0.000, 0.000, 0.000, 15:10:57.184
74, -2041.90, -1977.78, -1659.46, -1641.82, 0.000, 0.000, 0.000, 15:10:57.184
75, -2059.25, -1993.06, -1679.59, -1664.60, 0.000, 0.000, 0.000, 15:10:57.184
76, -2058.67, -1991.73, -1679.05, -1667.04, 0.000, 0.000, 0.000, 15:10:57.184
77, -2052.72, -1986.89, -1663.74, -1658.88, 0.000, 0.000, 0.000, 15:10:57.184
78, -2035.51, -1968.47, -1650.94, -1637.77, 0.000, 0.000, 0.000, 15:10:57.185
79, -2055.28, -1985.28, -1670.56, -1658.16, 0.000, 0.000, 0.000, 15:10:57.185
80, -2064.72, -1994.42, -1669.65, -1660.52, 0.000, 0.000, 0.000, 15:10:57.185
81, -2051.64, -1985.42, -1661.77, -1650.92, 0.000, 0.000, 0.000, 15:10:57.185
82, -2051.93, -1980.86, -1663.36, -1651.05, 0.000, 0.000, 0.000, 15:10:57.185
83, -2066.77, -1996.47, -1677.30, -1671.10, 0.000, 0.000, 0.000, 15:10:57.186
84, -2072.89, -2001.04, -1688.28, -1673.97, 0.000, 0.000, 0.000, 15:10:57.186
85, -2063.48, -1994.92, -1677.33, -1659.44, 0.000, 0.000, 0.000, 15:10:57.186
86, -2060.11, -1989.23, -1670.23, -1658.11, 0.000, 0.000, 0.000, 15:10:57.186
87, -2062.89, -1995.80, -1676.62, -1662.09, 0.000, 0.000, 0.000, 15:10:57.186
88, -2071.91, -2004.90, -1683.15, -1672.44, 0.000, 0.000, 0.000, 15:10:57.186
89, -2046.56, -1981.91, -1663.22, -1649.60, 0.000, 0.000, 0.000, 15:10:57.186
90, -2065.09, -1995.57, -1678.34, -1662.75, 0.000, 0.000, 0.000, 15:10:57.186
91, -2061.68, -1996.23, -1679.14, -1669.58, 0.000, 0.000, 0.000, 15:10:57.191
92, -2072.17, -2009.72, -1692.72, -1675.97, 0.000, 0.000, 0.000, 15:10:57.191
93, -2061.66, -1996.80, -1676.78, -1661.11, 0.000, 0.000, 0.000, 15:10:57.191
94, -2048.74, -1979.84, -1655.94, -1644.20, 0.000, 0.000, 0.000, 15:10:57.191
95, -2057.90, -1988.87, -1675.23, -1659.51, 0.000, 0.000, 0.000, 15:10:57.191
96, -2066.65, -1995.26, -1675.96, -1662.14, 0.000, 0.000, 0.000, 15:10:57.191
97, -2067.32, -1992.00, -1679.62, -1666.75, 0.000, 0.000, 0.000, 15:10:57.191
98, -2052.78, -1984.94, -1664.93, -1651.17, 0.000, 0.000, 0.000, 15:10:57.192
99, -2065.04, -1995.09, -1673.99, -1668.50, 0.000, 0.000, 0.000, 15:10:57.195
100, -2067.09, -2003.73, -1680.89, -1675.57, 0.000, 0.000, 0.000, 15:10:57.195
101, -2062.15, -1996.72, -1674.53, -1663.89, 0.000, 0.000, 0.000, 15:10:57.195
102, -2058.84, -1988.21, -1663.74, -1657.45, 0.000, 0.000, 0.000, 15:10:57.195
103, -2066.77, -1995.27, -1673.65, -1664.28, 0.000, 0.000, 0.000, 15:10:57.195
104, -2071.37, -2002.83, -1680.11, -1666.91, 0.000, 0.000, 0.000, 15:10:57.196
105, -2061.24, -1985.91, -1666.84, -1653.84, 0.000, 0.000, 0.000, 15:10:57.196
106, -2066.92, -1993.08, -1676.78, -1655.93, 0.000, 0.000, 0.000, 15:10:57.196
107, -2067.67, -2001.27, -1672.14, -1664.91, 0.000, 0.000, 0.000, 15:10:57.196
108, -2084.03, -2011.53, -1684.31, -1670.47, 0.000, 0.000, 0.000, 15:10:57.196
109, -2063.20, -2002.90, -1676.58, -1657.14, 0.000, 0.000, 0.000, 15:10:57.201
110, -2074.37, -2009.31, -1679.18, -1670.90, 0.000, 0.000, 0.000, 15:10:57.204
111, -2075.14, -2010.04, -1686.06, -1674.79, 0.000, 0.000, 0.000, 15:10:57.240
112, -2079.83, -2010.06, -1683.13, -1668.85, 0.000, 0.000, 0.000, 15:10:57.254
113, -2071.73, -2008.93, -1680.15, -1666.49, 0.000, 0.000, 0.000, 15:10:57.255
114, -2082.37, -2014.42, -1688.16, -1676.47, 0.000, 0.000, 0.000, 15:10:57.256
115, -2088.56, -2010.20, -1690.97, -1677.65, 0.000, 0.000, 0.000, 15:10:57.261
116, -2084.81, -2008.06, -1685.80, -1667.94, 0.000, 0.000, 0.000, 15:10:57.261
117, -2083.00, -2009.21, -1683.50, -1664.65, 0.000, 0.000, 0.000, 15:10:57.307
118, -2083.63, -2016.56, -1688.67, -1670.40, 0.000, 0.000, 0.000, 15:10:57.307
119, -2082.84, -2015.16, -1686.41, -1673.46, 0.000, 0.000, 0.000, 15:10:57.315
120, -2089.35, -2019.47, -1700.64, -1677.68, 0.000, 0.000, 0.000, 15:10:57.316
121, -2070.18, -1997.52, -1669.92, -1652.62, 0.000, 0.000, 0.000, 15:10:57.336
122, -2083.64, -2007.57, -1685.40, -1668.61, 0.000, 0.000, 0.000, 15:10:57.337
123, -2080.34, -2005.61, -1683.72, -1670.36, 0.000, 0.000, 0.000, 15:10:57.364
124, -2089.26, -2019.44, -1694.46, -1684.40, 0.000, 0.000, 0.000, 15:10:57.365
125, -2073.46, -2004.81, -1684.36, -1665.42, 0.000, 0.000, 0.000, 15:10:57.365
126, -2077.66, -2006.05, -1679.57, -1664.17, 0.000, 0.000, 0.000, 15:10:57.366
127, -2084.71, -2016.94, -1691.09, -1673.95, 0.000, 0.000, 0.000, 15:10:57.366
128, -2079.20, -2012.98, -1694.05, -1664.93, 0.000, 0.000, 0.000, 15:10:57.366
129, -2072.27, -2005.09, -1686.13, -1656.80, 0.000, 0.000, 0.000, 15:10:57.371
130, -2073.91, -2007.46, -1680.17, -1664.81, 0.000, 0.000, 0.000, 15:10:57.371
131, -2078.39, -2016.48, -1689.30, -1680.60, 0.000, 0.000, 0.000, 15:10:57.372
132, -2099.21, -2032.35, -1700.27, -1693.00, 0.000, 0.000, 0.000, 15:10:57.372
133, -2071.80, -2008.45, -1675.51, -1655.39, 0.000, 0.000, 0.000, 15:10:57.373
134, -2065.62, -1991.96, -1667.40, -1653.69, 0.000, 0.000, 0.000, 15:10:57.374
135, -2075.64, -2005.95, -1686.41, -1667.31, 0.000, 0.000, 0.000, 15:10:57.427
136, -2073.11, -1998.38, -1684.03, -1658.95, 0.000, 0.000, 0.000, 15:10:57.427
137, -2059.96, -1993.28, -1665.69, -1653.78, 0.000, 0.000, 0.000, 15:10:57.427
138, -2068.79, -2001.13, -1672.68, -1662.50, 0.000, 0.000, 0.000, 15:10:57.428
139, -2076.43, -2018.36, -1678.17, -1676.51, 0.000, 0.000, 0.000, 15:10:57.430
140, -2080.98, -2018.15, -1681.66, -1678.59, 0.000, 0.000, 0.000, 15:10:57.430
141, -2058.75, -1997.55, -1669.81, -1645.57, 0.000, 0.000, 0.000, 15:10:57.431
142, -2067.72, -2003.08, -1677.36, -1654.75, 0.000, 0.000, 0.000, 15:10:57.431
143, -2076.51, -2007.70, -1683.48, -1670.05, 0.000, 0.000, 0.000, 15:10:57.432
144, -2081.85, -2018.17, -1689.40, -1668.95, 0.000, 0.000, 0.000, 15:10:57.433
145, -2062.77, -1994.43, -1664.47, -1644.57, 0.000, 0.000, 0.000, 15:10:57.433
146, -2061.40, -1993.42, -1666.87, -1652.46, 0.000, 0.000, 0.000, 15:10:57.433
147, -2068.27, -2003.22, -1683.49, -1668.69, 0.000, 0.000, 0.000, 15:10:57.433
148, -2079.79, -2006.39, -1684.87, -1668.26, 0.000, 0.000, 0.000, 15:10:57.433
149, -2067.72, -1996.62, -1676.48, -1655.81, 0.000, 0.000, 0.000, 15:10:57.433
150, -2056.09, -1987.16, -1664.54, -1648.73, 0.000, 0.000, 0.000, 15:10:57.434
151, -2075.35, -2007.04, -1687.86, -1670.27, 0.000, 0.000, 0.000, 15:10:57.434
152, -2069.40, -2003.28, -1680.11, -1664.59, 0.000, 0.000, 0.000, 15:10:57.434
153, -2049.14, -1982.71, -1650.72, -1636.86, 0.000, 0.000, 0.000, 15:10:57.434
154, -2049.93, -1980.67, -1659.31, -1648.54, 0.000, 0.000, 0.000, 15:10:57.434
155, -2069.23, -2011.12, -1684.77, -1671.94, 0.000, 0.000, 0.000, 15:10:57.434
156, -2075.56, -2013.90, -1681.63, -1671.80, 0.000, 0.000, 0.000, 15:10:57.434
157, -2061.79, -1999.06, -1673.78, -1656.41, 0.000, 0.000, 0.000, 15:10:57.434
158, -2067.93, -2001.48, -1676.34, -1658.75, 0.000, 0.000, 0.000, 15:10:57.435
159, -2063.29, -1995.86, -1674.57, -1658.89, 0.000, 0.000, 0.000, 15:10:57.435
160, -2068.19, -2001.65, -1675.84, -1651.94, 0.000, 0.000, 0.000, 15:10:57.435
161, -2067.69, -1992.63, -1672.05, -1651.14, 0.000, 0.000, 0.000, 15:10:57.435
162, -2060.00, -1992.84, -1665.15, -1647.75, 0.000, 0.000, 0.000, 15:10:57.435
163, -2076.91, -2005.12, -1687.81, -1659.51, 0.000, 0.000, 0.000, 15:10:57.435
164, -2077.49, -2008.50, -1683.66, -1666.18, 0.000, 0.000, 0.000, 15:10:57.436
165, -2067.20, -2009.47, -1675.20, -1656.21, 0.000, 0.000, 0.000, 15:10:57.436
166, -2070.94, -2009.44, -1680.03, -1662.88, 0.000, 0.000, 0.000, 15:10:57.436
167, -2077.14, -2011.72, -1683.37, -1666.01, 0.000, 0.000, 0.000, 15:10:57.436
168, -2066.09, -2002.64, -1675.44, -1660.11, 0.000, 0.000, 0.000, 15:10:57.436
169, -2082.54, -2026.78, -1695.88, -1671.62, 0.000, 0.000, 0.000, 15:10:57.476
170, -2074.53, -2013.65, -1677.63, -1664.95, 0.000, 0.000, 0.000, 15:10:57.476
171, -2075.28, -2012.68, -1678.89, -1671.37, 0.000, 0.000, 0.000, 15:10:57.703
172, -2075.85, -2019.97, -1688.31, -1676.71, 0.000, 0.000, 0.000, 15:10:57.703
173, -2063.99, -1998.30, -1669.17, -1655.90, 0.000, 0.000, 0.000, 15:10:57.704
174, -2068.73, -1997.19, -1677.09, -1669.00, 0.000, 0.000, 0.000, 15:10:57.704
175, -2076.71, -2007.13, -1685.21, -1671.88, 0.000, 0.000, 0.000, 15:10:57.705
176, -2075.73, -2003.97, -1686.64, -1675.90, 0.000, 0.000, 0.000, 15:10:57.705
177, -2063.23, -1995.91, -1675.88, -1654.69, 0.000, 0.000, 0.000, 15:10:57.705
178, -2056.20, -1987.75, -1662.87, -1648.41, 0.000, 0.000, 0.000, 15:10:57.705
179, -2066.58, -1998.01, -1675.65, -1662.48, 0.000, 0.000, 0.000, 15:10:57.709
180, -2056.51, -1997.14, -1669.31, -1655.20, 0.000, 0.000, 0.000, 15:10:57.709
181, -2055.75, -1996.42, -1670.60, -1658.51, 0.000, 0.000, 0.000, 15:10:57.725
182, -2057.12, -1995.40, -1664.07, -1656.30, 0.000, 0.000, 0.000, 15:10:57.726
183, -2072.43, -2006.51, -1679.45, -1667.20, 0.000, 0.000, 0.000, 15:10:57.934
184, -2070.10, -1998.19, -1686.06, -1666.09, 0.000, 0.000, 0.000, 15:10:57.934
185, -2054.10, -1988.65, -1669.20, -1645.09, 0.000, 0.000, 0.000, 15:10:57.935
186, -2056.59, -1990.07, -1671.95, -1650.88, 0.000, 0.000, 0.000, 15:10:57.935
187, -2057.49, -1988.66, -1672.32, -1662.57, 0.000, 0.000, 0.000, 15:10:58.000
188, -2061.06, -1998.38, -1673.87, -1666.10, 0.000, 0.000, 0.000, 15:10:58.001
189, -2060.65, -1997.30, -1671.15, -1658.49, 0.000, 0.000, 0.000, 15:10:58.104
190, -2059.25, -1986.75, -1668.68, -1665.16, 0.000, 0.000, 0.000, 15:10:58.108
191, -2062.06, -1992.88, -1673.87, -1675.32, 0.000, 0.000, 0.000, 15:10:58.108
192, -2058.52, -1988.37, -1668.14, -1677.83, 0.000, 0.000, 0.000, 15:10:58.108
193, -2055.44, -1989.53, -1667.50, -1665.12, 0.000, 0.000, 0.000, 15:10:58.192
194, -2047.34, -1983.87, -1662.65, -1659.26, 0.000, 0.000, 0.000, 15:10:58.192
195, -2069.58, -2003.94, -1684.18, -1684.29, 0.000, 0.000, 0.000, 15:10:58.194
196, -2068.40, -1999.93, -1675.34, -1674.61, 0.000, 0.000, 0.000, 15:10:58.194
197, -2059.16, -1985.83, -1665.49, -1658.89, 0.000, 0.000, 0.000, 15:10:58.194
198, -2050.21, -1981.52, -1667.76, -1647.44, 0.000, 0.000, 0.000, 15:10:58.195
199, -2078.54, -2014.89, -1687.66, -1674.15, 0.000, 0.000, 0.000, 15:10:58.196
200, -2065.62, -2009.08, -1676.10, -1666.08, 0.000, 0.000, 0.000, 15:10:58.196
0, -2062.91, -2003.70, -1668.66, -1662.60, 0.000, 0.000, 0.000, 15:10:58.211
1, -2068.76, -2000.19, -1678.00, -1669.39, 0.000, 0.000, 0.000, 15:10:58.232
2, -2076.34, -2009.11, -1684.88, -1679.21, 0.000, 0.000, 0.000, 15:10:58.232
3, -2081.71, -2004.34, -1689.38, -1667.32, 0.000, 0.000, 0.000, 15:10:58.244
4, -2064.34, -2000.87, -1675.01, -1661.05, 0.000, 0.000, 0.000, 15:10:58.244
5, -2051.99, -1984.91, -1665.51, -1652.87, 0.000, 0.000, 0.000, 15:10:58.244
6, -2078.82, -2009.72, -1695.00, -1678.11, 0.000, 0.000, 0.000, 15:10:58.244
7, -2067.34, -2004.83, -1682.93, -1672.70, 0.000, 0.000, 0.000, 15:10:58.245
8, -2065.92, -2000.04, -1675.59, -1671.36, 0.000, 0.000, 0.000, 15:10:58.245
9, -2064.31, -1999.17, -1678.63, -1673.03, 0.000, 0.000, 0.000, 15:10:58.262
10, -2070.10, -2003.77, -1682.13, -1671.11, 0.000, 0.000, 0.000, 15:10:58.263
11, -2069.28, -2001.41, -1677.63, -1665.71, 0.000, 0.000, 0.000, 15:10:58.263
12, -2069.48, -2008.73, -1676.85, -1660.89, 0.000, 0.000, 0.000, 15:10:58.263
13, -2062.41, -1996.26, -1669.98, -1655.30, 0.000, 0.000, 0.000, 15:10:58.263
14, -2072.65, -2007.24, -1680.25, -1667.34, 0.000, 0.000, 0.000, 15:10:58.263
15, -2057.28, -1995.07, -1666.65, -1648.11, 0.000, 0.000, 0.000, 15:10:58.264
16, -2069.27, -2000.77, -1675.12, -1658.99, 0.000, 0.000, 0.000, 15:10:58.264
17, -2059.49, -1994.20, -1671.41, -1655.06, 0.000, 0.000, 0.000, 15:10:58.264
18, -2058.95, -1996.76, -1667.99, -1665.72, 0.000, 0.000, 0.000, 15:10:58.264
19, -2064.39, -1997.10, -1674.14, -1664.88, 0.000, 0.000, 0.000, 15:10:58.265
20, -2068.01, -1998.62, -1674.64, -1663.36, 0.000, 0.000, 0.000, 15:10:58.265
21, -2059.14, -1995.90, -1666.04, -1657.94, 0.000, 0.000, 0.000, 15:10:58.381
22, -2066.43, -2003.60, -1675.09, -1673.60, 0.000, 0.000, 0.000, 15:10:58.382
23, -2068.21, -2008.33, -1676.44, -1664.42, 0.000, 0.000, 0.000, 15:10:58.382
24, -2038.49, -1975.76, -1649.81, -1634.60, 0.000, 0.000, 0.000, 15:10:58.383
25, -2061.16, -2000.39, -1669.60, -1658.99, 0.000, 0.000, 0.000, 15:10:58.383
26, -2079.35, -2010.86, -1683.27, -1679.83, 0.000, 0.000, 0.000, 15:10:58.383
27, -2063.26, -1998.55, -1676.19, -1657.29, 0.000, 0.000, 0.000, 15:10:58.383
28, -2063.15, -1997.83, -1671.46, -1655.02, 0.000, 0.000, 0.000, 15:10:58.383
29, -2063.68, -1999.52, -1674.68, -1658.09, 0.000, 0.000, 0.000, 15:10:58.383
30, -2073.08, -2015.46, -1685.63, -1669.57, 0.000, 0.000, 0.000, 15:10:58.383
31, -2079.39, -2015.94, -1683.39, -1670.54, 0.000, 0.000, 0.000, 15:10:58.383
32, -2059.64, -1996.70, -1668.77, -1648.35, 0.000, 0.000, 0.000, 15:10:58.383
33, -2070.17, -2004.18, -1675.62, -1664.17, 0.000, 0.000, 0.000, 15:10:58.384
34, -2075.63, -2007.00, -1685.69, -1665.67, 0.000, 0.000, 0.000, 15:10:58.384
35, -2080.77, -2016.71, -1688.48, -1663.12, 0.000, 0.000, 0.000, 15:10:58.384
36, -2060.19, -1989.82, -1666.84, -1644.68, 0.000, 0.000, 0.000, 15:10:58.384
37, -2068.05, -1995.43, -1670.77, -1651.43, 0.000, 0.000, 0.000, 15:10:58.384
38, -2064.43, -2003.61, -1672.60, -1659.36, 0.000, 0.000, 0.000, 15:10:58.384
39, -2076.05, -2005.72, -1678.74, -1668.01, 0.000, 0.000, 0.000, 15:10:58.384
40, -2076.50, -2009.18, -1676.99, -1661.26, 0.000, 0.000, 0.000, 15:10:58.384
41, -2055.95, -1983.73, -1662.03, -1639.10, 0.000, 0.000, 0.000, 15:10:58.384
42, -2067.02, -1995.52, -1673.18, -1649.16, 0.000, 0.000, 0.000, 15:10:58.385
43, -2075.66, -2009.24, -1683.26, -1660.53, 0.000, 0.000, 0.000, 15:10:58.385
44, -2049.07, -1972.10, -1646.47, -1627.02, 0.000, 0.000, 0.000, 15:10:58.385
45, -2056.63, -1990.36, -1661.95, -1634.24, 0.000, 0.000, 0.000, 15:10:58.385
46, -2060.02, -1996.01, -1667.18, -1652.50, 0.000, 0.000, 0.000, 15:10:58.385
47, -2085.48, -2026.19, -1686.40, -1678.61, 0.000, 0.000, 0.000, 15:10:58.385
48, -2062.33, -2003.20, -1672.49, -1653.51, 0.000, 0.000, 0.000, 15:10:58.385
49, -2058.24, -1991.47, -1669.04, -1647.69, 0.000, 0.000, 0.000, 15:10:58.385
50, -2069.80, -2004.56, -1673.70, -1664.84, 0.000, 0.000, 0.000, 15:10:58.386
51, -2077.45, -2009.85, -1683.23, -1669.08, 0.000, 0.000, 0.000, 15:10:58.386
52, -2057.37, -1990.83, -1669.79, -1641.62, 0.000, 0.000, 0.000, 15:10:58.386
53, -2058.13, -1988.93, -1665.29, -1639.23, 0.000, 0.000, 0.000, 15:10:58.386
54, -2072.47, -2009.31, -1681.00, -1669.62, 0.000, 0.000, 0.000, 15:10:58.386
55, -2055.17, -1991.86, -1666.06, -1651.56, 0.000, 0.000, 0.000, 15:10:58.386
56, -2067.11, -2004.37, -1678.62, -1656.37, 0.000, 0.000, 0.000, 15:10:58.386
57, -2059.66, -1992.91, -1667.38, -1644.82, 0.000, 0.000, 0.000, 15:10:58.386
58, -2069.25, -2002.44, -1682.69, -1675.09, 0.000, 0.000, 0.000, 15:10:58.387
59, -2072.01, -2006.96, -1682.69, -1679.78, 0.000, 0.000, 0.000, 15:10:58.387
60, -2063.22, -1991.86, -1672.90, -1656.04, 0.000, 0.000, 0.000, 15:10:58.387
61, -2060.08, -1990.66, -1670.24, -1653.32, 0.000, 0.000, 0.000, 15:10:58.387
62, -2054.16, -1989.50, -1665.89, -1652.45, 0.000, 0.000, 0.000, 15:10:58.387
63, -2076.66, -2009.32, -1686.95, -1662.46, 0.000, 0.000, 0.000, 15:10:58.387
64, -2061.66, -1989.02, -1670.62, -1638.24, 0.000, 0.000, 0.000, 15:10:58.387
65, -2062.42, -1990.81, -1669.36, -1637.38, 0.000, 0.000, 0.000, 15:10:58.387
66, -2072.67, -2010.44, -1684.44, -1666.99, 0.000, 0.000, 0.000, 15:10:58.387
67, -2065.69, -2001.72, -1672.19, -1654.95, 0.000, 0.000, 0.000, 15:10:58.388
68, -2041.26, -1976.80, -1647.62, -1635.10, 0.000, 0.000, 0.000, 15:10:58.388
69, -2063.34, -1995.28, -1664.99, -1651.37, 0.000, 0.000, 0.000, 15:10:58.388
70, -2076.15, -2004.87, -1681.78, -1672.11, 0.000, 0.000, 0.000, 15:10:58.388
71, -2088.49, -2021.62, -1698.30, -1687.29, 0.000, 0.000, 0.000, 15:10:58.388
72, -2060.85, -1993.34, -1663.19, -1656.17, 0.000, 0.000, 0.000, 15:10:58.388
73, -2059.59, -1997.38, -1669.74, -1663.25, 0.000, 0.000, 0.000, 15:10:58.388
74, -2070.72, -2004.14, -1679.08, -1685.74, 0.000, 0.000, 0.000, 15:10:58.389
75, -2081.38, -2016.20, -1696.92, -1697.34, 0.000, 0.000, 0.000, 15:10:58.389
76, -2065.90, -2006.10, -1682.74, -1676.70, 0.000, 0.000, 0.000, 15:10:58.389
77, -2060.79, -1990.69, -1668.97, -1681.85, 0.000, 0.000, 0.000, 15:10:58.389
78, -2065.13, -1998.79, -1674.65, -1689.81, 0.000, 0.000, 0.000, 15:10:58.389
79, -2060.71, -2010.98, -1673.79, -1687.58, 0.000, 0.000, 0.000, 15:10:58.389
80, -2053.92, -1991.87, -1663.95, -1666.33, 0.000, 0.000, 0.000, 15:10:58.389
81, -2042.01, -1969.21, -1651.35, -1650.70, 0.000, 0.000, 0.000, 15:10:58.389
82, -2060.04, -1996.77, -1672.11, -1685.14, 0.000, 0.000, 0.000, 15:10:58.389
83, -2048.84, -1983.75, -1660.38, -1673.09, 0.000, 0.000, 0.000, 15:10:58.390
84, -2034.13, -1974.38, -1645.85, -1639.79, 0.000, 0.000, 0.000, 15:10:58.390
85, -2043.12, -1975.58, -1651.41, -1644.33, 0.000, 0.000, 0.000, 15:10:58.390
86, -2016.97, -1955.56, -1631.63, -1640.86, 0.000, 0.000, 0.000, 15:10:58.390
87, -2031.82, -1962.91, -1641.90, -1641.12, 0.000, 0.000, 0.000, 15:10:58.390
88, -2060.24, -1995.00, -1672.01, -1651.13, 0.000, 0.000, 0.000, 15:10:58.390
89, -2064.51, -1998.36, -1673.67, -1650.43, 0.000, 0.000, 0.000, 15:10:58.390
90, -2083.50, -2013.26, -1687.18, -1691.79, 0.000, 0.000, 0.000, 15:10:58.390
91, -2038.99, -1975.86, -1646.27, -1638.03, 0.000, 0.000, 0.000, 15:10:58.391
92, -2041.16, -1973.69, -1645.79, -1625.90, 0.000, 0.000, 0.000, 15:10:58.391
93, -2097.12, -2025.23, -1705.59, -1690.87, 0.000, 0.000, 0.000, 15:10:58.391
94, -2110.82, -2042.90, -1722.21, -1721.79, 0.000, 0.000, 0.000, 15:10:58.391
95, -2073.13, -2015.73, -1688.78, -1678.51, 0.000, 0.000, 0.000, 15:10:58.391
96, -2059.06, -1994.69, -1675.90, -1642.30, 0.000, 0.000, 0.000, 15:10:58.391
97, -2086.99, -2026.61, -1705.47, -1689.56, 0.000, 0.000, 0.000, 15:10:58.391
98, -2058.77, -1998.36, -1673.66, -1668.35, 0.000, 0.000, 0.000, 15:10:58.391
99, -2074.93, -2007.47, -1685.55, -1671.73, 0.000, 0.000, 0.000, 15:10:58.391
100, -2057.47, -1999.71, -1665.97, -1645.97, 0.000, 0.000, 0.000, 15:10:58.392
101, -2074.56, -2010.54, -1685.74, -1660.56, 0.000, 0.000, 0.000, 15:10:58.392
102, -2078.08, -2007.97, -1688.59, -1683.66, 0.000, 0.000, 0.000, 15:10:58.392
103, -2046.71, -1987.49, -1660.84, -1648.43, 0.000, 0.000, 0.000, 15:10:58.392
104, -2061.68, -2003.40, -1672.62, -1634.14, 0.000, 0.000, 0.000, 15:10:58.392
105, -2078.38, -2015.10, -1686.14, -1660.73, 0.000, 0.000, 0.000, 15:10:58.392
106, -2062.31, -2002.97, -1671.99, -1660.67, 0.000, 0.000, 0.000, 15:10:58.392
107, -2084.81, -2013.52, -1690.62, -1670.30, 0.000, 0.000, 0.000, 15:10:58.471
108, -2077.57, -2005.52, -1681.98, -1637.26, 0.000, 0.000, 0.000, 15:10:58.471
109, -2084.49, -2017.87, -1693.40, -1655.83, 0.000, 0.000, 0.000, 15:10:58.510
110, -2075.69, -2014.95, -1681.14, -1673.53, 0.000, 0.000, 0.000, 15:10:58.510
111, -2102.94, -2034.18, -1708.01, -1682.87, 0.000, 0.000, 0.000, 15:10:58.510
112, -2087.34, -2020.97, -1689.49, -1641.32, 0.000, 0.000, 0.000, 15:10:58.510
113, -2087.90, -2029.35, -1696.00, -1661.77, 0.000, 0.000, 0.000, 15:10:58.600
114, -2100.41, -2033.60, -1706.13, -1692.40, 0.000, 0.000, 0.000, 15:10:58.600
115, -2089.02, -2023.64, -1697.13, -1677.96, 0.000, 0.000, 0.000, 15:10:58.695
116, -2060.68, -1995.41, -1671.21, -1637.55, 0.000, 0.000, 0.000, 15:10:58.695
117, -2082.14, -2012.12, -1685.39, -1664.00, 0.000, 0.000, 0.000, 15:10:58.698
118, -2071.36, -1999.28, -1676.99, -1668.66, 0.000, 0.000, 0.000, 15:10:58.698
119, -2070.59, -2007.04, -1679.46, -1665.64, 0.000, 0.000, 0.000, 15:10:58.714
120, -2064.43, -2003.86, -1676.42, -1642.14, 0.000, 0.000, 0.000, 15:10:58.714
121, -2068.91, -2009.44, -1673.85, -1659.17, 0.000, 0.000, 0.000, 15:10:58.715
122, -2063.87, -1992.94, -1670.60, -1670.85, 0.000, 0.000, 0.000, 15:10:58.715
123, -2088.74, -2025.06, -1699.53, -1687.83, 0.000, 0.000, 0.000, 15:10:58.726
124, -2076.61, -2010.30, -1676.60, -1651.54, 0.000, 0.000, 0.000, 15:10:58.726
125, -2051.88, -1994.17, -1659.99, -1648.73, 0.000, 0.000, 0.000, 15:10:58.776
126, -2058.44, -1987.38, -1672.33, -1675.34, 0.000, 0.000, 0.000, 15:10:58.776
127, -2050.50, -1990.56, -1665.70, -1663.36, 0.000, 0.000, 0.000, 15:10:58.776
128, -2051.93, -1988.69, -1660.74, -1634.14, 0.000, 0.000, 0.000, 15:10:58.777
129, -2064.19, -1999.87, -1676.00, -1661.90, 0.000, 0.000, 0.000, 15:10:58.825
130, -2062.01, -1997.64, -1678.76, -1685.51, 0.000, 0.000, 0.000, 15:10:58.825
131, -2079.81, -2007.28, -1688.49, -1675.27, 0.000, 0.000, 0.000, 15:10:58.847
132, -2061.33, -1995.45, -1670.42, -1645.03, 0.000, 0.000, 0.000, 15:10:58.847
133, -2030.72, -1973.20, -1642.57, -1629.10, 0.000, 0.000, 0.000, 15:10:58.848
134, -2070.34, -2022.32, -1684.13, -1706.54, 0.000, 0.000, 0.000, 15:10:58.848
135, -2032.97, -1965.67, -1636.16, -1637.15, 0.000, 0.000, 0.000, 15:10:58.862
136, -2067.40, -1995.16, -1669.08, -1647.88, 0.000, 0.000, 0.000, 15:10:58.863
137, -2106.63, -2031.02, -1711.88, -1699.78, 0.000, 0.000, 0.000, 15:10:59.114
138, -2086.13, -2013.34, -1702.12, -1706.83, 0.000, 0.000, 0.000, 15:10:59.115
139, -2069.21, -1999.53, -1679.82, -1674.60, 0.000, 0.000, 0.000, 15:10:59.115
140, -2050.63, -1992.86, -1658.23, -1640.44, 0.000, 0.000, 0.000, 15:10:59.115
141, -2046.60, -1981.05, -1649.91, -1651.41, 0.000, 0.000, 0.000, 15:10:59.116
142, -2090.35, -2009.68, -1697.67, -1705.12, 0.000, 0.000, 0.000, 15:10:59.135
143, -2085.09, -2016.19, -1691.06, -1696.03, 0.000, 0.000, 0.000, 15:10:59.144
144, -2057.58, -1992.45, -1678.26, -1647.08, 0.000, 0.000, 0.000, 15:10:59.145
145, -2049.30, -1983.24, -1655.75, -1653.50, 0.000, 0.000, 0.000, 15:10:59.145
146, -2107.45, -2041.01, -1721.95, -1728.67, 0.000, 0.000, 0.000, 15:10:59.146
147, -2081.45, -2016.46, -1688.73, -1691.22, 0.000, 0.000, 0.000, 15:10:59.147
148, -2038.68, -1976.09, -1646.42, -1631.10, 0.000, 0.000, 0.000, 15:10:59.147
149, -2051.34, -1991.76, -1666.30, -1661.19, 0.000, 0.000, 0.000, 15:10:59.148
150, -2048.57, -1980.24, -1659.26, -1708.52, 0.000, 0.000, 0.000, 15:10:59.148
151, -2069.89, -2006.77, -1687.21, -1703.14, 0.000, 0.000, 0.000, 15:10:59.151
152, -2057.60, -1991.12, -1669.19, -1642.41, 0.000, 0.000, 0.000, 15:10:59.151
153, -2063.15, -1991.96, -1674.15, -1648.01, 0.000, 0.000, 0.000, 15:10:59.152
154, -2075.08, -2004.68, -1685.43, -1690.18, 0.000, 0.000, 0.000, 15:10:59.153
155, -2076.25, -2003.23, -1690.00, -1674.33, 0.000, 0.000, 0.000, 15:10:59.156
156, -2069.97, -2002.10, -1681.28, -1643.67, 0.000, 0.000, 0.000, 15:10:59.156
157, -2059.92, -1991.74, -1669.36, -1661.44, 0.000, 0.000, 0.000, 15:10:59.157
158, -2082.74, -2023.43, -1701.88, -1717.96, 0.000, 0.000, 0.000, 15:10:59.158
159, -2081.48, -2012.42, -1692.84, -1693.43, 0.000, 0.000, 0.000, 15:10:59.158
160, -2064.50, -2001.84, -1670.81, -1654.80, 0.000, 0.000, 0.000, 15:10:59.158
161, -2075.49, -2008.47, -1681.39, -1676.85, 0.000, 0.000, 0.000, 15:10:59.158
162, -2078.72, -2009.73, -1687.44, -1704.15, 0.000, 0.000, 0.000, 15:10:59.159
163, -2089.30, -2027.53, -1700.01, -1695.74, 0.000, 0.000, 0.000, 15:10:59.159
164, -2072.19, -2012.05, -1674.44, -1654.46, 0.000, 0.000, 0.000, 15:10:59.159
165, -2040.52, -1976.57, -1656.22, -1633.44, 0.000, 0.000, 0.000, 15:10:59.159
166, -2067.22, -2008.95, -1681.34, -1691.81, 0.000, 0.000, 0.000, 15:10:59.162
167, -2068.79, -2012.20, -1674.46, -1671.41, 0.000, 0.000, 0.000, 15:10:59.179
168, -2068.51, -2000.85, -1673.33, -1635.83, 0.000, 0.000, 0.000, 15:10:59.179
169, -2070.32, -2008.60, -1679.23, -1653.59, 0.000, 0.000, 0.000, 15:10:59.180
170, -2081.82, -2020.51, -1692.14, -1691.66, 0.000, 0.000, 0.000, 15:10:59.180
171, -2080.90, -2016.11, -1691.47, -1675.47, 0.000, 0.000, 0.000, 15:10:59.212
172, -2034.17, -1970.61, -1643.86, -1605.65, 0.000, 0.000, 0.000, 15:10:59.213
173, -2059.19, -1987.18, -1669.97, -1642.11, 0.000, 0.000, 0.000, 15:10:59.214
174, -2086.82, -2012.85, -1704.40, -1691.00, 0.000, 0.000, 0.000, 15:10:59.214
175, -2066.09, -1991.22, -1688.58, -1655.68, 0.000, 0.000, 0.000, 15:10:59.217
176, -2066.37, -1991.65, -1691.35, -1630.07, 0.000, 0.000, 0.000, 15:10:59.217
177, -2049.24, -1980.60, -1672.12, -1629.39, 0.000, 0.000, 0.000, 15:10:59.218
178, -2078.35, -2013.00, -1703.59, -1684.50, 0.000, 0.000, 0.000, 15:10:59.218
179, -2063.17, -2003.65, -1687.34, -1656.52, 0.000, 0.000, 0.000, 15:10:59.218
180, -2070.45, -2007.37, -1689.68, -1640.47, 0.000, 0.000, 0.000, 15:10:59.218
181, -2081.87, -2009.84, -1696.66, -1660.44, 0.000, 0.000, 0.000, 15:10:59.371
182, -2063.10, -1987.58, -1682.46, -1672.13, 0.000, 0.000, 0.000, 15:10:59.371
183, -2062.01, -1991.53, -1683.16, -1659.43, 0.000, 0.000, 0.000, 15:10:59.371
184, -2064.26, -2001.47, -1675.52, -1632.00, 0.000, 0.000, 0.000, 15:10:59.371
185, -2056.74, -1996.34, -1672.98, -1649.00, 0.000, 0.000, 0.000, 15:10:59.372
186, -2072.18, -2005.94, -1687.32, -1688.70, 0.000, 0.000, 0.000, 15:10:59.372
187, -2042.98, -1974.05, -1658.43, -1644.40, 0.000, 0.000, 0.000, 15:10:59.373
188, -2043.89, -1984.23, -1656.28, -1625.41, 0.000, 0.000, 0.000, 15:10:59.373
189, -2064.41, -2002.30, -1675.28, -1652.67, 0.000, 0.000, 0.000, 15:10:59.373
190, -2073.42, -2011.06, -1684.08, -1691.32, 0.000, 0.000, 0.000, 15:10:59.374
191, -2067.04, -2008.43, -1674.51, -1661.97, 0.000, 0.000, 0.000, 15:10:59.374
192, -2059.38, -1994.33, -1661.28, -1630.09, 0.000, 0.000, 0.000, 15:10:59.374
193, -2075.65, -2009.70, -1683.16, -1662.65, 0.000, 0.000, 0.000, 15:10:59.375
194, -2062.73, -1997.26, -1670.52, -1676.39, 0.000, 0.000, 0.000, 15:10:59.375
195, -2062.41, -1990.89, -1664.25, -1656.64, 0.000, 0.000, 0.000, 15:10:59.375
196, -2051.39, -1990.36, -1657.72, -1628.99, 0.000, 0.000, 0.000, 15:10:59.376
197, -2064.15, -2008.20, -1671.19, -1656.50, 0.000, 0.000, 0.000, 15:10:59.377
198, -2078.11, -2015.06, -1685.73, -1691.78, 0.000, 0.000, 0.000, 15:10:59.377
199, -2064.07, -2000.53, -1669.66, -1667.52, 0.000, 0.000, 0.000, 15:10:59.377
200, -2055.23, -1992.64, -1662.69, -1635.50, 0.000, 0.000, 0.000, 15:10:59.378
0, -2060.08, -1996.53, -1669.40, -1650.31, 0.000, 0.000, 0.000, 15:10:59.378
1, -2083.58, -2016.73, -1693.31, -1705.33, 0.000, 0.000, 0.000, 15:10:59.378
2, -2064.63, -1996.68, -1672.37, -1665.41, 0.000, 0.000, 0.000, 15:10:59.378
3, -2055.18, -1984.40, -1656.79, -1623.86, 0.000, 0.000, 0.000, 15:10:59.379
4, -2061.28, -1991.46, -1663.71, -1651.29, 0.000, 0.000, 0.000, 15:10:59.379
5, -2070.21, -1999.83, -1670.91, -1682.91, 0.000, 0.000, 0.000, 15:10:59.386
6, -2053.22, -1988.27, -1663.02, -1651.73, 0.000, 0.000, 0.000, 15:10:59.386
7, -2062.21, -1994.79, -1667.57, -1627.34, 0.000, 0.000, 0.000, 15:10:59.388
8, -2071.29, -2002.98, -1677.41, -1654.61, 0.000, 0.000, 0.000, 15:10:59.388
9, -2077.73, -2007.95, -1687.53, -1692.89, 0.000, 0.000, 0.000, 15:10:59.389
10, -2068.18, -2001.27, -1676.16, -1666.52, 0.000, 0.000, 0.000, 15:10:59.389
11, -2059.97, -1997.57, -1669.39, -1638.90, 0.000, 0.000, 0.000, 15:10:59.389
12, -2066.39, -1999.24, -1676.45, -1659.00, 0.000, 0.000, 0.000, 15:10:59.389
13, -2066.47, -1997.56, -1677.95, -1682.37, 0.000, 0.000, 0.000, 15:10:59.390
14, -2059.39, -2000.90, -1676.86, -1660.39, 0.000, 0.000, 0.000, 15:10:59.390
15, -2063.89, -2002.16, -1679.86, -1643.94, 0.000, 0.000, 0.000, 15:10:59.390
16, -2056.66, -1996.04, -1670.90, -1652.83, 0.000, 0.000, 0.000, 15:10:59.390
17, -2061.57, -2001.06, -1677.28, -1689.91, 0.000, 0.000, 0.000, 15:10:59.390
18, -2064.78, -1996.58, -1681.17, -1668.98, 0.000, 0.000, 0.000, 15:10:59.390
19, -2052.39, -1989.47, -1659.83, -1629.52, 0.000, 0.000, 0.000, 15:10:59.390
20, -2066.68, -2005.30, -1677.73, -1663.47, 0.000, 0.000, 0.000, 15:10:59.391
21, -2064.89, -2003.45, -1676.67, -1689.93, 0.000, 0.000, 0.000, 15:10:59.401
22, -2051.54, -1993.09, -1663.00, -1662.13, 0.000, 0.000, 0.000, 15:10:59.401
23, -2054.98, -1989.42, -1661.93, -1635.73, 0.000, 0.000, 0.000, 15:10:59.402
24, -2059.36, -1995.36, -1666.54, -1657.73, 0.000, 0.000, 0.000, 15:10:59.402
25, -2053.79, -1991.54, -1669.35, -1679.20, 0.000, 0.000, 0.000, 15:10:59.404
26, -2058.34, -1997.94, -1671.27, -1671.16, 0.000, 0.000, 0.000, 15:10:59.405
27, -2044.57, -1982.51, -1658.32, -1630.70, 0.000, 0.000, 0.000, 15:10:59.406
28, -2048.84, -1990.05, -1661.11, -1649.37, 0.000, 0.000, 0.000, 15:10:59.407
29, -2061.99, -2001.43, -1672.11, -1683.51, 0.000, 0.000, 0.000, 15:10:59.407
30, -2055.28, -1997.23, -1663.47, -1661.19, 0.000, 0.000, 0.000, 15:10:59.407
31, -2068.75, -1996.03, -1673.20, -1643.51, 0.000, 0.000, 0.000, 15:10:59.408
32, -2072.90, -2002.79, -1677.61, -1665.55, 0.000, 0.000, 0.000, 15:10:59.408
33, -2072.51, -2014.62, -1681.10, -1695.34, 0.000, 0.000, 0.000, 15:10:59.409
34, -2051.54, -1986.55, -1660.06, -1653.38, 0.000, 0.000, 0.000, 15:10:59.409
35, -2040.51, -1980.80, -1656.31, -1630.82, 0.000, 0.000, 0.000, 15:10:59.409
36, -2054.28, -1991.97, -1662.39, -1655.41, 0.000, 0.000, 0.000, 15:10:59.409
37, -2070.46, -2013.73, -1680.54, -1692.18, 0.000, 0.000, 0.000, 15:10:59.410
38, -2060.29, -2005.61, -1675.21, -1670.09, 0.000, 0.000, 0.000, 15:10:59.410
39, -2054.25, -1991.12, -1668.20, -1647.91, 0.000, 0.000, 0.000, 15:10:59.415
40, -2059.58, -1995.21, -1672.97, -1663.89, 0.000, 0.000, 0.000, 15:10:59.415
41, -2063.37, -1999.80, -1680.20, -1685.31, 0.000, 0.000, 0.000, 15:10:59.416
42, -2051.90, -1990.32, -1667.08, -1661.72, 0.000, 0.000, 0.000, 15:10:59.417
43, -2054.35, -1988.79, -1666.42, -1647.62, 0.000, 0.000, 0.000, 15:10:59.417
44, -2061.88, -1999.45, -1668.81, -1668.28, 0.000, 0.000, 0.000, 15:10:59.417
45, -2069.49, -2005.83, -1675.49, -1688.68, 0.000, 0.000, 0.000, 15:10:59.418
46, -2063.35, -1996.98, -1672.40, -1668.97, 0.000, 0.000, 0.000, 15:10:59.418
47, -2055.72, -1991.32, -1668.52, -1650.68, 0.000, 0.000, 0.000, 15:10:59.419
48, -2058.70, -1989.35, -1668.45, -1661.88, 0.000, 0.000, 0.000, 15:10:59.419
49, -2070.14, -2001.83, -1684.20, -1685.66, 0.000, 0.000, 0.000, 15:10:59.421
50, -2059.59, -2003.16, -1676.16, -1678.58, 0.000, 0.000, 0.000, 15:10:59.422
51, -2064.36, -2002.71, -1677.29, -1656.92, 0.000, 0.000, 0.000, 15:10:59.422
52, -2054.41, -1989.14, -1666.88, -1655.12, 0.000, 0.000, 0.000, 15:10:59.422
53, -2063.68, -1994.59, -1675.39, -1674.39, 0.000, 0.000, 0.000, 15:10:59.424
54, -2066.72, -1990.61, -1676.58, -1664.32, 0.000, 0.000, 0.000, 15:10:59.424
55, -2059.22, -1986.46, -1666.11, -1646.00, 0.000, 0.000, 0.000, 15:10:59.424
56, -2073.74, -2007.19, -1684.61, -1668.80, 0.000, 0.000, 0.000, 15:10:59.424
57, -2069.94, -2005.30, -1686.08, -1688.87, 0.000, 0.000, 0.000, 15:10:59.425
58, -2069.92, -2008.48, -1684.84, -1679.27, 0.000, 0.000, 0.000, 15:10:59.425
59, -2052.46, -1987.93, -1662.87, -1646.62, 0.000, 0.000, 0.000, 15:10:59.426
60, -2059.29, -1988.88, -1667.44, -1662.76, 0.000, 0.000, 0.000, 15:10:59.426
61, -2059.90, -1986.59, -1675.94, -1677.13, 0.000, 0.000, 0.000, 15:10:59.426
62, -2062.90, -1997.64, -1682.71, -1676.04, 0.000, 0.000, 0.000, 15:10:59.427
63, -2044.23, -1976.75, -1657.24, -1637.19, 0.000, 0.000, 0.000, 15:10:59.427
64, -2045.87, -1985.50, -1658.35, -1653.51, 0.000, 0.000, 0.000, 15:10:59.427
65, -2056.84, -1993.62, -1665.79, -1673.32, 0.000, 0.000, 0.000, 15:10:59.428
66, -2059.87, -2000.30, -1674.48, -1671.86, 0.000, 0.000, 0.000, 15:10:59.428
67, -2060.24, -1995.75, -1668.18, -1653.67, 0.000, 0.000, 0.000, 15:10:59.429
68, -2082.11, -2013.14, -1692.88, -1687.37, 0.000, 0.000, 0.000, 15:10:59.429
69, -2067.51, -1997.89, -1678.63, -1677.90, 0.000, 0.000, 0.000, 15:10:59.429
70, -2063.68, -1998.46, -1671.29, -1664.65, 0.000, 0.000, 0.000, 15:10:59.429
71, -2048.65, -1984.06, -1658.45, -1635.96, 0.000, 0.000, 0.000, 15:10:59.430
72, -2046.21, -1975.88, -1656.50, -1630.81, 0.000, 0.000, 0.000, 15:10:59.430
73, -2071.09, -2002.77, -1682.77, -1676.24, 0.000, 0.000, 0.000, 15:10:59.430
74, -2057.52, -1997.33, -1667.92, -1655.62, 0.000, 0.000, 0.000, 15:10:59.430
75, -2049.90, -1987.46, -1651.18, -1632.35, 0.000, 0.000, 0.000, 15:10:59.431
76, -2075.81, -2017.83, -1683.43, -1672.54, 0.000, 0.000, 0.000, 15:10:59.431
77, -2084.81, -2021.67, -1689.60, -1687.61, 0.000, 0.000, 0.000, 15:10:59.432
78, -2075.77, -2009.11, -1680.97, -1676.65, 0.000, 0.000, 0.000, 15:10:59.432
79, -2051.18, -1991.25, -1658.98, -1639.59, 0.000, 0.000, 0.000, 15:10:59.432
80, -2069.36, -2003.62, -1674.62, -1670.41, 0.000, 0.000, 0.000, 15:10:59.432
81, -2083.98, -2018.45, -1689.39, -1690.43, 0.000, 0.000, 0.000, 15:10:59.433
82, -2067.91, -2007.13, -1671.60, -1661.97, 0.000, 0.000, 0.000, 15:10:59.433
83, -2043.03, -1975.70, -1643.34, -1625.01, 0.000, 0.000, 0.000, 15:10:59.433
84, -2066.86, -2007.17, -1674.29, -1667.31, 0.000, 0.000, 0.000, 15:10:59.434
85, -2057.57, -1997.70, -1671.36, -1672.15, 0.000, 0.000, 0.000, 15:10:59.434
86, -2055.58, -1991.86, -1665.09, -1659.09, 0.000, 0.000, 0.000, 15:10:59.434
87, -2055.74, -1990.92, -1664.20, -1645.24, 0.000, 0.000, 0.000, 15:10:59.435
88, -2059.18, -1997.85, -1666.11, -1659.56, 0.000, 0.000, 0.000, 15:10:59.435
89, -2101.31, -2025.67, -1708.32, -1704.47, 0.000, 0.000, 0.000, 15:10:59.441
90, -2050.88, -1979.01, -1663.33, -1644.90, 0.000, 0.000, 0.000, 15:10:59.442
91, -2069.03, -1994.71, -1671.86, -1655.19, 0.000, 0.000, 0.000, 15:10:59.442
92, -2070.56, -1994.86, -1673.94, -1660.25, 0.000, 0.000, 0.000, 15:10:59.443
93, -2055.45, -1983.53, -1663.88, -1665.79, 0.000, 0.000, 0.000, 15:10:59.443
94, -2049.81, -1973.85, -1655.78, -1648.79, 0.000, 0.000, 0.000, 15:10:59.444
95, -2045.95, -1972.86, -1646.67, -1631.62, 0.000, 0.000, 0.000, 15:10:59.444
96, -2067.79, -1997.55, -1662.11, -1657.79, 0.000, 0.000, 0.000, 15:10:59.444
97, -2052.77, -1992.90, -1653.98, -1663.92, 0.000, 0.000, 0.000, 15:10:59.445
98, -2075.41, -2008.55, -1679.27, -1670.45, 0.000, 0.000, 0.000, 15:10:59.445
99, -2061.60, -2003.28, -1668.00, -1641.71, 0.000, 0.000, 0.000, 15:10:59.446
100, -2085.14, -2020.67, -1691.63, -1682.07, 0.000, 0.000, 0.000, 15:10:59.446
101, -2085.91, -2018.56, -1689.27, -1686.20, 0.000, 0.000, 0.000, 15:10:59.447
102, -2079.21, -2013.36, -1686.56, -1670.43, 0.000, 0.000, 0.000, 15:10:59.447
103, -2070.14, -2001.28, -1668.95, -1642.92, 0.000, 0.000, 0.000, 15:10:59.447
104, -2081.95, -2012.64, -1683.39, -1661.50, 0.000, 0.000, 0.000, 15:10:59.447
105, -2083.65, -2019.35, -1686.30, -1683.72, 0.000, 0.000, 0.000, 15:10:59.448
106, -2079.54, -2006.28, -1680.01, -1664.56, 0.000, 0.000, 0.000, 15:10:59.448
107, -2062.40, -2000.53, -1667.56, -1640.65, 0.000, 0.000, 0.000, 15:10:59.448
108, -2078.07, -2011.01, -1684.11, -1658.37, 0.000, 0.000, 0.000, 15:10:59.448
109, -2074.49, -2008.67, -1676.91, -1665.01, 0.000, 0.000, 0.000, 15:10:59.449
110, -2084.45, -2025.43, -1691.63, -1671.85, 0.000, 0.000, 0.000, 15:10:59.449
111, -2077.43, -2018.08, -1682.55, -1649.94, 0.000, 0.000, 0.000, 15:10:59.450
112, -2091.88, -2029.93, -1691.35, -1663.45, 0.000, 0.000, 0.000, 15:10:59.450
113, -2089.43, -2028.81, -1693.66, -1667.75, 0.000, 0.000, 0.000, 15:10:59.450
114, -2075.65, -2009.85, -1676.47, -1653.65, 0.000, 0.000, 0.000, 15:10:59.451
115, -2078.63, -2011.66, -1670.57, -1636.46, 0.000, 0.000, 0.000, 15:10:59.451
116, -2075.31, -2014.12, -1683.08, -1653.22, 0.000, 0.000, 0.000, 15:10:59.451
117, -2089.52, -2028.36, -1696.25, -1681.72, 0.000, 0.000, 0.000, 15:10:59.452
118, -2088.24, -2031.25, -1695.01, -1676.58, 0.000, 0.000, 0.000, 15:10:59.452
119, -2065.20, -2001.38, -1669.66, -1643.71, 0.000, 0.000, 0.000, 15:10:59.452
120, -2073.42, -2003.39, -1679.96, -1662.24, 0.000, 0.000, 0.000, 15:10:59.453
121, -2085.72, -2012.76, -1690.99, -1683.79, 0.000, 0.000, 0.000, 15:10:59.454
122, -2088.29, -2020.89, -1699.43, -1681.35, 0.000, 0.000, 0.000, 15:10:59.454
123, -2068.73, -2006.42, -1683.08, -1652.50, 0.000, 0.000, 0.000, 15:10:59.454
124, -2071.89, -2012.47, -1682.18, -1665.33, 0.000, 0.000, 0.000, 15:10:59.455
125, -2079.64, -2019.60, -1686.79, -1682.65, 0.000, 0.000, 0.000, 15:10:59.455
126, -2074.53, -2008.92, -1680.89, -1659.74, 0.000, 0.000, 0.000, 15:10:59.455
127, -2082.74, -2010.93, -1684.05, -1670.63, 0.000, 0.000, 0.000, 15:10:59.456
128, -2070.09, -2003.71, -1677.64, -1666.05, 0.000, 0.000, 0.000, 15:10:59.456
129, -2063.52, -1998.95, -1671.28, -1668.73, 0.000, 0.000, 0.000, 15:10:59.456
130, -2065.86, -1994.80, -1672.33, -1655.79, 0.000, 0.000, 0.000, 15:10:59.457
131, -2057.92, -1986.47, -1660.41, -1635.26, 0.000, 0.000, 0.000, 15:10:59.457
132, -2068.33, -1997.15, -1670.79, -1659.69, 0.000, 0.000, 0.000, 15:10:59.457
133, -2077.03, -2008.96, -1683.39, -1683.36, 0.000, 0.000, 0.000, 15:10:59.458
134, -2073.29, -2001.92, -1669.01, -1663.31, 0.000, 0.000, 0.000, 15:10:59.458
135, -2066.29, -1999.61, -1665.11, -1650.47, 0.000, 0.000, 0.000, 15:10:59.468
136, -2067.55, -2006.79, -1674.55, -1669.66, 0.000, 0.000, 0.000, 15:10:59.468
137, -2069.80, -2012.38, -1681.77, -1689.48, 0.000, 0.000, 0.000, 15:10:59.468
138, -2062.94, -1999.39, -1670.20, -1667.95, 0.000, 0.000, 0.000, 15:10:59.469
139, -2043.46, -1969.32, -1649.83, -1634.74, 0.000, 0.000, 0.000, 15:10:59.469
140, -2057.00, -1986.59, -1665.18, -1657.74, 0.000, 0.000, 0.000, 15:10:59.469
141, -2067.30, -2001.19, -1678.08, -1684.91, 0.000, 0.000, 0.000, 15:10:59.470
142, -2057.62, -1980.06, -1665.38, -1664.32, 0.000, 0.000, 0.000, 15:10:59.470
143, -2041.19, -1974.45, -1647.32, -1641.33, 0.000, 0.000, 0.000, 15:10:59.470
144, -2052.86, -1986.99, -1668.76, -1669.55, 0.000, 0.000, 0.000, 15:10:59.470
145, -2060.00, -1996.87, -1670.42, -1677.28, 0.000, 0.000, 0.000, 15:10:59.471
146, -2051.33, -1984.62, -1661.47, -1652.33, 0.000, 0.000, 0.000, 15:10:59.471
147, -2039.21, -1973.53, -1655.33, -1640.70, 0.000, 0.000, 0.000, 15:10:59.474
148, -2052.27, -1987.84, -1662.85, -1654.59, 0.000, 0.000, 0.000, 15:10:59.474
149, -2053.88, -1991.14, -1666.39, -1672.15, 0.000, 0.000, 0.000, 15:10:59.474
150, -2060.04, -1992.25, -1670.19, -1655.57, 0.000, 0.000, 0.000, 15:10:59.474
151, -2051.25, -1986.61, -1658.45, -1649.02, 0.000, 0.000, 0.000, 15:10:59.475
152, -2057.76, -1995.57, -1663.96, -1664.54, 0.000, 0.000, 0.000, 15:10:59.476
153, -2058.28, -1989.57, -1671.06, -1666.76, 0.000, 0.000, 0.000, 15:10:59.476
154, -2060.13, -1998.11, -1674.07, -1660.60, 0.000, 0.000, 0.000, 15:10:59.476
155, -2033.96, -1975.80, -1649.23, -1629.48, 0.000, 0.000, 0.000, 15:10:59.476
156, -2061.72, -1990.09, -1672.63, -1661.14, 0.000, 0.000, 0.000, 15:10:59.476
157, -2069.47, -2006.88, -1678.51, -1685.39, 0.000, 0.000, 0.000, 15:10:59.477
158, -2066.99, -1999.12, -1675.55, -1673.17, 0.000, 0.000, 0.000, 15:10:59.477
159, -2047.69, -1984.75, -1664.71, -1647.94, 0.000, 0.000, 0.000, 15:10:59.477
160, -2057.94, -1998.40, -1674.06, -1667.34, 0.000, 0.000, 0.000, 15:10:59.477
161, -2076.44, -2014.23, -1689.24, -1689.31, 0.000, 0.000, 0.000, 15:10:59.477
162, -2067.74, -2002.68, -1675.52, -1666.30, 0.000, 0.000, 0.000, 15:10:59.477
163, -2054.69, -1991.29, -1666.67, -1641.00, 0.000, 0.000, 0.000, 15:10:59.477
164, -2069.11, -1993.66, -1673.74, -1658.20, 0.000, 0.000, 0.000, 15:10:59.477
165, -2068.17, -1996.23, -1677.37, -1671.49, 0.000, 0.000, 0.000, 15:10:59.486
166, -2059.31, -1993.90, -1669.78, -1644.53, 0.000, 0.000, 0.000, 15:10:59.486
167, -2055.01, -1992.52, -1662.49, -1629.95, 0.000, 0.000, 0.000, 15:10:59.486
168, -2066.53, -2004.54, -1673.64, -1648.10, 0.000, 0.000, 0.000, 15:10:59.486
169, -2072.50, -2009.36, -1680.27, -1659.37, 0.000, 0.000, 0.000, 15:10:59.487
170, -2075.21, -2008.24, -1683.50, -1647.32, 0.000, 0.000, 0.000, 15:10:59.487
171, -2072.25, -2005.86, -1675.87, -1628.48, 0.000, 0.000, 0.000, 15:10:59.490
172, -2074.27, -2010.70, -1680.75, -1646.23, 0.000, 0.000, 0.000, 15:10:59.490
173, -2087.89, -2023.13, -1690.07, -1665.77, 0.000, 0.000, 0.000, 15:10:59.493
174, -2099.59, -2028.08, -1699.29, -1663.14, 0.000, 0.000, 0.000, 15:10:59.493
175, -2085.70, -2012.84, -1683.27, -1650.16, 0.000, 0.000, 0.000, 15:10:59.494
176, -2081.86, -2013.61, -1686.56, -1656.92, 0.000, 0.000, 0.000, 15:10:59.494
177, -2083.07, -2011.73, -1685.29, -1671.89, 0.000, 0.000, 0.000, 15:10:59.507
178, -2074.89, -1997.35, -1677.03, -1657.16, 0.000, 0.000, 0.000, 15:10:59.508
179, -2057.86, -1995.60, -1663.65, -1633.47, 0.000, 0.000, 0.000, 15:10:59.508
180, -2061.85, -1991.82, -1672.22, -1652.64, 0.000, 0.000, 0.000, 15:10:59.508
181, -2080.57, -2009.86, -1694.04, -1681.54, 0.000, 0.000, 0.000, 15:10:59.537
182, -2059.29, -1998.40, -1668.49, -1656.89, 0.000, 0.000, 0.000, 15:10:59.537
183, -2075.62, -2017.72, -1681.54, -1660.13, 0.000, 0.000, 0.000, 15:10:59.537
184, -2080.31, -2014.35, -1683.11, -1669.23, 0.000, 0.000, 0.000, 15:10:59.537
185, -2093.16, -2024.18, -1695.09, -1686.68, 0.000, 0.000, 0.000, 15:10:59.537
186, -2075.40, -2007.92, -1679.33, -1662.15, 0.000, 0.000, 0.000, 15:10:59.537
187, -2062.46, -1997.91, -1672.22, -1641.16, 0.000, 0.000, 0.000, 15:10:59.543
188, -2073.51, -2012.33, -1686.20, -1665.95, 0.000, 0.000, 0.000, 15:10:59.543
189, -2076.82, -2014.44, -1691.87, -1675.54, 0.000, 0.000, 0.000, 15:10:59.558
190, -2070.51, -2002.71, -1679.36, -1658.45, 0.000, 0.000, 0.000, 15:10:59.558
191, -2055.90, -1992.28, -1665.32, -1644.24, 0.000, 0.000, 0.000, 15:10:59.572
192, -2078.11, -2012.20, -1685.35, -1674.56, 0.000, 0.000, 0.000, 15:10:59.572
193, -2079.78, -2015.54, -1686.82, -1683.38, 0.000, 0.000, 0.000, 15:10:59.607
194, -2069.10, -1999.90, -1675.81, -1662.65, 0.000, 0.000, 0.000, 15:10:59.607
195, -2070.05, -2007.54, -1684.33, -1657.66, 0.000, 0.000, 0.000, 15:10:59.608
196, -2078.63, -2010.77, -1687.26, -1669.37, 0.000, 0.000, 0.000, 15:10:59.608
197, -2078.83, -2009.61, -1689.19, -1676.21, 0.000, 0.000, 0.000, 15:10:59.608
198, -2083.04, -2017.71, -1682.65, -1669.56, 0.000, 0.000, 0.000, 15:10:59.608
199, -2064.55, -1997.54, -1669.37, -1651.45, 0.000, 0.000, 0.000, 15:10:59.609
200, -2080.93, -2007.62, -1687.52, -1679.68, 0.000, 0.000, 0.000, 15:10:59.609
0, -2060.77, -1994.66, -1679.70, -1668.22, 0.000, 0.000, 0.000, 15:10:59.609
1, -2063.29, -1996.44, -1675.50, -1661.63, 0.000, 0.000, 0.000, 15:10:59.620
2, -2059.14, -1996.37, -1667.14, -1659.42, 0.000, 0.000, 0.000, 15:10:59.620
3, -2062.12, -1997.47, -1666.59, -1668.73, 0.000, 0.000, 0.000, 15:10:59.639
4, -2065.01, -1995.36, -1667.82, -1676.29, 0.000, 0.000, 0.000, 15:10:59.640
5, -2062.23, -2000.49, -1666.02, -1663.16, 0.000, 0.000, 0.000, 15:10:59.640
6, -2064.71, -1999.31, -1674.64, -1651.75, 0.000, 0.000, 0.000, 15:10:59.640
7, -2064.88, -1993.36, -1673.01, -1654.02, 0.000, 0.000, 0.000, 15:10:59.663
8, -2072.87, -2001.98, -1681.22, -1670.18, 0.000, 0.000, 0.000, 15:10:59.664
9, -2065.64, -2004.66, -1676.18, -1656.56, 0.000, 0.000, 0.000, 15:10:59.664
10, -2054.95, -1996.65, -1670.91, -1643.78, 0.000, 0.000, 0.000, 15:10:59.665
11, -2057.94, -1990.01, -1668.91, -1643.39, 0.000, 0.000, 0.000, 15:10:59.671
12, -2070.58, -2002.64, -1673.73, -1653.36, 0.000, 0.000, 0.000, 15:10:59.671
13, -2077.47, -2011.29, -1683.13, -1654.88, 0.000, 0.000, 0.000, 15:10:59.679
14, -2058.05, -1989.99, -1668.14, -1628.16, 0.000, 0.000, 0.000, 15:10:59.679
15, -2061.20, -1991.90, -1673.99, -1644.97, 0.000, 0.000, 0.000, 15:10:59.693
16, -2067.95, -1995.99, -1686.37, -1663.30, 0.000, 0.000, 0.000, 15:10:59.693
17, -2063.46, -1997.80, -1680.63, -1655.20, 0.000, 0.000, 0.000, 15:10:59.694
18, -2046.65, -1981.16, -1661.41, -1638.52, 0.000, 0.000, 0.000, 15:10:59.694
19, -2071.93, -2001.30, -1684.42, -1679.22, 0.000, 0.000, 0.000, 15:10:59.708
20, -2062.68, -2003.20, -1677.20, -1685.18, 0.000, 0.000, 0.000, 15:10:59.708
21, -2068.88, -2015.28, -1679.56, -1686.32, 0.000, 0.000, 0.000, 15:10:59.723
22, -2053.52, -1994.23, -1661.30, -1663.90, 0.000, 0.000, 0.000, 15:10:59.723
23, -2056.64, -1995.01, -1666.46, -1670.20, 0.000, 0.000, 0.000, 15:10:59.739
24, -2072.34, -2009.30, -1683.41, -1694.97, 0.000, 0.000, 0.000, 15:10:59.740
25, -2056.79, -1994.07, -1672.56, -1674.93, 0.000, 0.000, 0.000, 15:10:59.740
26, -2044.71, -1984.76, -1659.09, -1652.14, 0.000, 0.000, 0.000, 15:10:59.740
27, -2047.93, -1981.62, -1661.73, -1656.12, 0.000, 0.000, 0.000, 15:10:59.756
28, -2056.03, -1989.18, -1670.03, -1676.45, 0.000, 0.000, 0.000, 15:10:59.756
29, -2047.79, -1984.45, -1664.98, -1662.84, 0.000, 0.000, 0.000, 15:10:59.757
30, -2050.56, -1987.90, -1661.74, -1653.24, 0.000, 0.000, 0.000, 15:10:59.758
31, -2063.32, -1999.94, -1675.79, -1672.05, 0.000, 0.000, 0.000, 15:10:59.788
32, -2058.74, -2001.92, -1677.11, -1683.75, 0.000, 0.000, 0.000, 15:10:59.788
33, -2057.44, -2002.45, -1682.45, -1673.67, 0.000, 0.000, 0.000, 15:10:59.789
34, -2055.58, -1991.63, -1666.34, -1665.09, 0.000, 0.000, 0.000, 15:10:59.789
35, -2066.42, -1994.49, -1684.84, -1671.42, 0.000, 0.000, 0.000, 15:10:59.789
36, -2057.26, -1982.38, -1672.77, -1665.50, 0.000, 0.000, 0.000, 15:10:59.792
37, -2063.97, -1989.46, -1669.60, -1667.07, 0.000, 0.000, 0.000, 15:10:59.800
38, -2041.47, -1980.88, -1651.85, -1645.90, 0.000, 0.000, 0.000, 15:10:59.800
39, -2064.18, -1997.23, -1672.20, -1673.05, 0.000, 0.000, 0.000, 15:10:59.820
40, -2069.85, -2002.77, -1685.09, -1685.97, 0.000, 0.000, 0.000, 15:10:59.820
41, -2059.41, -1986.63, -1666.68, -1661.27, 0.000, 0.000, 0.000, 15:10:59.820
42, -2045.99, -1973.75, -1655.53, -1644.25, 0.000, 0.000, 0.000, 15:10:59.821
43, -2058.34, -1990.39, -1676.90, -1677.36, 0.000, 0.000, 0.000, 15:10:59.830
44, -2074.25, -2003.60, -1684.96, -1685.18, 0.000, 0.000, 0.000, 15:10:59.830
45, -2055.85, -1985.90, -1667.03, -1662.31, 0.000, 0.000, 0.000, 15:10:59.844
46, -2055.71, -1992.61, -1677.19, -1667.57, 0.000, 0.000, 0.000, 15:10:59.844
47, -2040.81, -1971.78, -1662.24, -1654.78, 0.000, 0.000, 0.000, 15:10:59.844
48, -2080.58, -2008.22, -1695.78, -1695.96, 0.000, 0.000, 0.000, 15:10:59.844
49, -2057.40, -1977.47, -1664.88, -1655.29, 0.000, 0.000, 0.000, 15:10:59.858
50, -2058.17, -1995.83, -1662.27, -1654.88, 0.000, 0.000, 0.000, 15:10:59.858
51, -2044.09, -1977.52, -1651.96, -1649.43, 0.000, 0.000, 0.000, 15:10:59.873
52, -2050.95, -1980.60, -1652.95, -1664.03, 0.000, 0.000, 0.000, 15:10:59.873
53, -2044.31, -1976.99, -1648.23, -1652.96, 0.000, 0.000, 0.000, 15:10:59.874
54, -2038.23, -1970.11, -1653.42, -1644.36, 0.000, 0.000, 0.000, 15:10:59.874
55, -2045.20, -1980.39, -1660.32, -1658.34, 0.000, 0.000, 0.000, 15:10:59.893
56, -2050.80, -1989.48, -1667.58, -1673.62, 0.000, 0.000, 0.000, 15:10:59.893
57, -2061.10, -1998.40, -1670.55, -1671.58, 0.000, 0.000, 0.000, 15:10:59.904
58, -2047.66, -1976.85, -1655.16, -1652.38, 0.000, 0.000, 0.000, 15:10:59.905
59, -2040.32, -1971.36, -1645.13, -1647.42, 0.000, 0.000, 0.000, 15:10:59.905
60, -2056.77, -1985.05, -1671.26, -1671.41, 0.000, 0.000, 0.000, 15:10:59.905
61, -2045.62, -1979.54, -1660.21, -1651.03, 0.000, 0.000, 0.000, 15:10:59.922
62, -2046.00, -1974.22, -1658.62, -1643.30, 0.000, 0.000, 0.000, 15:10:59.923
63, -2048.56, -1977.92, -1658.67, -1648.50, 0.000, 0.000, 0.000, 15:10:59.940
64, -2062.61, -1996.01, -1679.74, -1673.49, 0.000, 0.000, 0.000, 15:10:59.940
65, -2065.35, -1992.17, -1670.12, -1655.75, 0.000, 0.000, 0.000, 15:10:59.940
66, -2064.09, -1997.36, -1668.32, -1647.61, 0.000, 0.000, 0.000, 15:10:59.941
67, -2063.79, -2003.22, -1674.91, -1656.83, 0.000, 0.000, 0.000, 15:10:59.953
68, -2095.58, -2037.36, -1706.69, -1693.18, 0.000, 0.000, 0.000, 15:10:59.954
69, -2081.59, -2025.13, -1688.30, -1670.67, 0.000, 0.000, 0.000, 15:10:59.963
70, -2068.21, -2006.60, -1677.30, -1649.99, 0.000, 0.000, 0.000, 15:10:59.964
71, -2074.27, -2010.08, -1683.69, -1668.27, 0.000, 0.000, 0.000, 15:10:59.964
72, -2078.14, -2017.78, -1687.29, -1684.74, 0.000, 0.000, 0.000, 15:10:59.964
73, -2069.58, -2007.77, -1677.42, -1661.37, 0.000, 0.000, 0.000, 15:10:59.983
74, -2051.81, -1991.71, -1661.42, -1644.31, 0.000, 0.000, 0.000, 15:10:59.983
75, -2061.08, -1998.90, -1671.41, -1653.00, 0.000, 0.000, 0.000, 15:10:59.995
76, -2070.77, -2003.51, -1682.95, -1668.54, 0.000, 0.000, 0.000, 15:10:59.995
77, -2068.73, -2002.20, -1681.69, -1657.94, 0.000, 0.000, 0.000, 15:10:59.995
78, -2056.16, -1989.72, -1668.33, -1633.80, 0.000, 0.000, 0.000, 15:10:59.995
79, -2074.18, -2012.84, -1681.81, -1652.53, 0.000, 0.000, 0.000, 15:11:00.009
80, -2081.35, -2024.87, -1692.20, -1669.35, 0.000, 0.000, 0.000, 15:11:00.009
81, -2092.63, -2036.92, -1702.87, -1665.84, 0.000, 0.000, 0.000, 15:11:00.023
82, -2084.64, -2024.82, -1690.46, -1635.74, 0.000, 0.000, 0.000, 15:11:00.023
83, -2092.67, -2030.37, -1700.66, -1666.11, 0.000, 0.000, 0.000, 15:11:00.023
84, -2081.29, -2018.74, -1693.73, -1664.11, 0.000, 0.000, 0.000, 15:11:00.023
85, -2089.51, -2024.08, -1694.56, -1666.96, 0.000, 0.000, 0.000, 15:11:00.038
86, -2069.68, -1997.35, -1669.79, -1636.67, 0.000, 0.000, 0.000, 15:11:00.038
87, -2073.05, -2004.44, -1683.13, -1661.33, 0.000, 0.000, 0.000, 15:11:00.053
88, -2080.70, -2011.51, -1684.49, -1678.21, 0.000, 0.000, 0.000, 15:11:00.053
89, -2085.05, -2018.82, -1693.68, -1668.33, 0.000, 0.000, 0.000, 15:11:00.060
90, -2086.63, -2027.67, -1696.45, -1666.44, 0.000, 0.000, 0.000, 15:11:00.060
91, -2087.44, -2028.16, -1702.58, -1677.74, 0.000, 0.000, 0.000, 15:11:00.073
92, -2086.97, -2021.34, -1709.25, -1683.36, 0.000, 0.000, 0.000, 15:11:00.075
93, -2089.08, -2022.21, -1718.26, -1676.63, 0.000, 0.000, 0.000, 15:11:00.083
94, -2082.55, -2017.33, -1711.12, -1664.38, 0.000, 0.000, 0.000, 15:11:00.084
95, -2084.69, -2016.33, -1708.28, -1671.68, 0.000, 0.000, 0.000, 15:11:00.084
96, -2082.24, -2011.60, -1705.73, -1676.38, 0.000, 0.000, 0.000, 15:11:00.084
97, -2070.62, -1996.35, -1696.47, -1661.39, 0.000, 0.000, 0.000, 15:11:00.103
98, -2072.99, -1997.44, -1696.72, -1648.66, 0.000, 0.000, 0.000, 15:11:00.103
99, -2067.58, -1995.92, -1691.13, -1652.29, 0.000, 0.000, 0.000, 15:11:00.113
100, -2078.57, -2015.26, -1698.36, -1675.57, 0.000, 0.000, 0.000, 15:11:00.113
101, -2084.44, -2018.83, -1704.76, -1670.61, 0.000, 0.000, 0.000, 15:11:00.114
102, -2071.58, -2008.20, -1687.72, -1655.67, 0.000, 0.000, 0.000, 15:11:00.114
103, -2074.64, -2012.95, -1687.69, -1664.26, 0.000, 0.000, 0.000, 15:11:00.131
104, -2076.67, -2011.95, -1687.71, -1684.16, 0.000, 0.000, 0.000, 15:11:00.132
105, -2076.59, -2015.14, -1686.07, -1668.35, 0.000, 0.000, 0.000, 15:11:00.144
106, -2071.12, -2001.96, -1675.93, -1653.72, 0.000, 0.000, 0.000, 15:11:00.144
107, -2073.20, -2001.82, -1675.82, -1669.40, 0.000, 0.000, 0.000, 15:11:00.150
108, -2092.39, -2026.02, -1698.77, -1687.91, 0.000, 0.000, 0.000, 15:11:00.150
109, -2076.07, -2012.89, -1684.74, -1661.60, 0.000, 0.000, 0.000, 15:11:00.158
110, -2068.89, -2006.56, -1682.31, -1649.91, 0.000, 0.000, 0.000, 15:11:00.159
111, -2068.61, -2004.33, -1682.35, -1654.42, 0.000, 0.000, 0.000, 15:11:00.176
112, -2074.65, -2008.41, -1688.69, -1670.01, 0.000, 0.000, 0.000, 15:11:00.176
113, -2065.56, -1999.03, -1675.49, -1661.80, 0.000, 0.000, 0.000, 15:11:00.177
114, -2051.80, -1990.45, -1664.35, -1654.42, 0.000, 0.000, 0.000, 15:11:00.177
115, -2071.70, -2005.37, -1684.80, -1678.96, 0.000, 0.000, 0.000, 15:11:00.188
116, -2060.22, -1986.20, -1671.56, -1675.53, 0.000, 0.000, 0.000, 15:11:00.188
117, -2049.24, -1978.48, -1656.85, -1658.31, 0.000, 0.000, 0.000, 15:11:00.208
118, -2040.79, -1965.67, -1641.24, -1628.80, 0.000, 0.000, 0.000, 15:11:00.209
119, -2044.68, -1976.60, -1648.63, -1641.46, 0.000, 0.000, 0.000, 15:11:00.209
120, -2043.68, -1971.95, -1653.70, -1646.09, 0.000, 0.000, 0.000, 15:11:00.209
121, -2058.63, -1993.49, -1664.45, -1665.19, 0.000, 0.000, 0.000, 15:11:00.233
122, -2052.57, -1981.39, -1659.32, -1650.74, 0.000, 0.000, 0.000, 15:11:00.233
123, -2057.98, -1996.35, -1662.41, -1668.60, 0.000, 0.000, 0.000, 15:11:00.244
124, -2057.64, -1989.00, -1668.51, -1669.19, 0.000, 0.000, 0.000, 15:11:00.245
125, -2071.04, -1997.73, -1677.64, -1666.37, 0.000, 0.000, 0.000, 15:11:00.245
126, -2042.47, -1974.59, -1651.49, -1636.70, 0.000, 0.000, 0.000, 15:11:00.246
127, -2058.69, -1999.92, -1664.17, -1660.00, 0.000, 0.000, 0.000, 15:11:00.249
128, -2060.38, -2003.41, -1674.12, -1677.61, 0.000, 0.000, 0.000, 15:11:00.250
129, -2050.31, -1988.55, -1662.84, -1651.98, 0.000, 0.000, 0.000, 15:11:00.311
130, -2044.34, -1975.98, -1653.87, -1638.48, 0.000, 0.000, 0.000, 15:11:00.311
131, -2057.29, -1996.94, -1668.65, -1661.39, 0.000, 0.000, 0.000, 15:11:00.311
132, -2059.46, -1998.20, -1671.75, -1677.68, 0.000, 0.000, 0.000, 15:11:00.311
133, -2070.14, -1992.65, -1672.04, -1660.34, 0.000, 0.000, 0.000, 15:11:00.312
134, -2047.07, -1981.19, -1658.18, -1641.22, 0.000, 0.000, 0.000, 15:11:00.312
135, -2069.58, -1998.79, -1678.18, -1663.04, 0.000, 0.000, 0.000, 15:11:00.312
136, -2075.33, -2010.19, -1685.90, -1676.16, 0.000, 0.000, 0.000, 15:11:00.313
137, -2070.79, -2004.81, -1675.16, -1656.40, 0.000, 0.000, 0.000, 15:11:00.313
138, -2071.52, -2007.54, -1674.36, -1659.30, 0.000, 0.000, 0.000, 15:11:00.313
139, -2078.68, -2007.23, -1681.13, -1666.50, 0.000, 0.000, 0.000, 15:11:00.313
140, -2083.47, -2017.31, -1688.33, -1681.51, 0.000, 0.000, 0.000, 15:11:00.314
141, -2081.54, -2024.97, -1690.07, -1678.38, 0.000, 0.000, 0.000, 15:11:00.314
142, -2076.25, -2008.56, -1680.14, -1670.18, 0.000, 0.000, 0.000, 15:11:00.314
143, -2078.77, -2020.58, -1685.08, -1678.36, 0.000, 0.000, 0.000, 15:11:00.344
144, -2078.74, -2009.50, -1687.75, -1685.70, 0.000, 0.000, 0.000, 15:11:00.344
145, -2070.02, -2006.45, -1681.42, -1670.57, 0.000, 0.000, 0.000, 15:11:00.345
146, -2070.54, -2002.41, -1687.75, -1664.94, 0.000, 0.000, 0.000, 15:11:00.345
147, -2065.65, -1996.53, -1675.63, -1675.00, 0.000, 0.000, 0.000, 15:11:00.368
148, -2065.23, -1996.78, -1677.25, -1669.13, 0.000, 0.000, 0.000, 15:11:00.369
149, -2056.20, -1993.31, -1672.49, -1657.81, 0.000, 0.000, 0.000, 15:11:00.376
150, -2043.17, -1976.27, -1659.25, -1642.68, 0.000, 0.000, 0.000, 15:11:00.376
151, -2054.69, -1992.58, -1667.14, -1666.23, 0.000, 0.000, 0.000, 15:11:00.376
152, -2050.57, -1988.77, -1659.09, -1674.11, 0.000, 0.000, 0.000, 15:11:00.376
153, -2053.65, -1983.31, -1658.54, -1663.91, 0.000, 0.000, 0.000, 15:11:00.383
154, -2056.68, -1981.30, -1656.44, -1649.23, 0.000, 0.000, 0.000, 15:11:00.383
155, -2058.35, -1987.44, -1659.55, -1650.88, 0.000, 0.000, 0.000, 15:11:00.384
156, -2067.65, -1999.15, -1679.97, -1669.18, 0.000, 0.000, 0.000, 15:11:00.384
157, -2067.76, -1993.63, -1687.78, -1651.46, 0.000, 0.000, 0.000, 15:11:00.399
158, -2074.00, -2005.41, -1699.56, -1648.49, 0.000, 0.000, 0.000, 15:11:00.399
159, -2090.91, -2018.42, -1719.37, -1679.03, 0.000, 0.000, 0.000, 15:11:00.413
160, -2094.30, -2024.83, -1725.84, -1689.47, 0.000, 0.000, 0.000, 15:11:00.414
161, -2079.65, -2013.30, -1710.58, -1665.80, 0.000, 0.000, 0.000, 15:11:00.414
162, -2059.59, -1991.66, -1691.89, -1651.98, 0.000, 0.000, 0.000, 15:11:00.415
163, -2060.48, -1987.13, -1685.50, -1654.38, 0.000, 0.000, 0.000, 15:11:00.428
164, -2085.39, -2021.95, -1711.05, -1685.83, 0.000, 0.000, 0.000, 15:11:00.428
165, -2066.93, -1998.28, -1689.16, -1653.31, 0.000, 0.000, 0.000, 15:11:00.443
166, -2051.71, -1990.48, -1672.71, -1644.80, 0.000, 0.000, 0.000, 15:11:00.443
167, -2045.84, -1984.71, -1664.28, -1643.48, 0.000, 0.000, 0.000, 15:11:00.444
168, -2054.00, -1999.64, -1673.64, -1666.45, 0.000, 0.000, 0.000, 15:11:00.444
169, -2047.38, -1986.99, -1661.40, -1647.34, 0.000, 0.000, 0.000, 15:11:00.459
170, -2031.52, -1963.12, -1643.26, -1624.92, 0.000, 0.000, 0.000, 15:11:00.459
171, -2061.86, -1990.89, -1668.42, -1658.30, 0.000, 0.000, 0.000, 15:11:00.477
172, -2053.44, -1982.46, -1663.46, -1657.42, 0.000, 0.000, 0.000, 15:11:00.477
173, -2054.83, -1985.36, -1668.78, -1645.72, 0.000, 0.000, 0.000, 15:11:00.480
174, -2046.59, -1975.21, -1653.28, -1638.12, 0.000, 0.000, 0.000, 15:11:00.480
175, -2058.38, -1982.47, -1663.47, -1649.52, 0.000, 0.000, 0.000, 15:11:00.495
176, -2069.08, -2006.22, -1680.00, -1679.73, 0.000, 0.000, 0.000, 15:11:00.495
177, -2072.99, -2012.50, -1675.98, -1678.22, 0.000, 0.000, 0.000, 15:11:00.511
178, -2065.27, -2006.61, -1675.67, -1662.31, 0.000, 0.000, 0.000, 15:11:00.511
179, -2070.62, -2012.97, -1677.47, -1675.51, 0.000, 0.000, 0.000, 15:11:00.511
180, -2089.67, -2022.40, -1703.14, -1698.34, 0.000, 0.000, 0.000, 15:11:00.512
181, -2076.81, -2011.05, -1683.80, -1671.62, 0.000, 0.000, 0.000, 15:11:00.549
182, -2075.40, -2010.49, -1688.36, -1670.90, 0.000, 0.000, 0.000, 15:11:00.549
183, -2070.96, -2005.94, -1682.35, -1671.47, 0.000, 0.000, 0.000, 15:11:00.550
184, -2080.62, -2013.70, -1695.06, -1677.75, 0.000, 0.000, 0.000, 15:11:00.550
185, -2059.54, -1995.89, -1673.66, -1658.34, 0.000, 0.000, 0.000, 15:11:00.550
186, -2062.50, -2000.55, -1673.74, -1660.42, 0.000, 0.000, 0.000, 15:11:00.550
187, -2053.57, -1991.54, -1662.08, -1659.94, 0.000, 0.000, 0.000, 15:11:00.552
188, -2058.30, -1995.99, -1671.96, -1677.30, 0.000, 0.000, 0.000, 15:11:00.552
189, -2042.97, -1982.31, -1657.16, -1653.14, 0.000, 0.000, 0.000, 15:11:00.563
190, -2051.42, -1995.68, -1661.70, -1655.05, 0.000, 0.000, 0.000, 15:11:00.563
191, -2054.09, -1990.37, -1661.33, -1658.93, 0.000, 0.000, 0.000, 15:11:00.563
192, -2054.18, -1988.22, -1668.16, -1667.45, 0.000, 0.000, 0.000, 15:11:00.564
193, -2050.42, -1982.20, -1658.66, -1647.62, 0.000, 0.000, 0.000, 15:11:00.578
194, -2042.03, -1980.76, -1652.00, -1634.14, 0.000, 0.000, 0.000, 15:11:00.579
195, -2060.88, -2000.78, -1668.49, -1663.10, 0.000, 0.000, 0.000, 15:11:00.623
196, -2074.65, -2010.70, -1682.53, -1678.19, 0.000, 0.000, 0.000, 15:11:00.623
197, -2071.60, -2012.71, -1676.74, -1668.97, 0.000, 0.000, 0.000, 15:11:00.624
198, -2072.00, -2015.46, -1671.94, -1658.25, 0.000, 0.000, 0.000, 15:11:00.624
199, -2088.72, -2025.69, -1685.62, -1679.82, 0.000, 0.000, 0.000, 15:11:00.624
200, -2089.18, -2020.51, -1687.84, -1682.00, 0.000, 0.000, 0.000, 15:11:00.624
0, -2085.59, -2024.77, -1690.02, -1680.94, 0.000, 0.000, 0.000, 15:11:00.627
1, -2082.94, -2023.81, -1681.40, -1665.36, 0.000, 0.000, 0.000, 15:11:00.628
2, -2073.97, -2012.15, -1680.32, -1673.75, 0.000, 0.000, 0.000, 15:11:00.628
3, -2081.79, -2020.98, -1688.17, -1687.61, 0.000, 0.000, 0.000, 15:11:00.628
4, -2076.82, -2018.84, -1680.32, -1676.67, 0.000, 0.000, 0.000, 15:11:00.628
5, -2060.42, -2003.47, -1664.23, -1653.23, 0.000, 0.000, 0.000, 15:11:00.645
6, -2057.33, -2006.25, -1663.79, -1666.88, 0.000, 0.000, 0.000, 15:11:00.645
7, -2060.16, -1997.61, -1669.26, -1669.96, 0.000, 0.000, 0.000, 15:11:00.669
8, -2039.92, -1968.67, -1645.63, -1636.01, 0.000, 0.000, 0.000, 15:11:00.669
9, -2047.00, -1975.30, -1653.16, -1642.18, 0.000, 0.000, 0.000, 15:11:00.669
10, -2061.32, -1991.20, -1671.34, -1662.57, 0.000, 0.000, 0.000, 15:11:00.670
11, -2063.76, -2001.45, -1673.67, -1673.80, 0.000, 0.000, 0.000, 15:11:00.670
12, -2051.47, -1988.06, -1660.38, -1649.39, 0.000, 0.000, 0.000, 15:11:00.670
13, -2053.79, -1980.14, -1658.28, -1640.66, 0.000, 0.000, 0.000, 15:11:00.698
14, -2067.92, -1998.33, -1679.12, -1670.75, 0.000, 0.000, 0.000, 15:11:00.699
15, -2080.63, -2007.16, -1685.69, -1682.23, 0.000, 0.000, 0.000, 15:11:00.715
16, -2072.18, -2004.43, -1669.92, -1660.94, 0.000, 0.000, 0.000, 15:11:00.715
17, -2078.22, -2014.57, -1676.46, -1655.62, 0.000, 0.000, 0.000, 15:11:00.716
18, -2067.88, -2006.17, -1675.90, -1666.18, 0.000, 0.000, 0.000, 15:11:00.716
19, -2070.71, -2004.59, -1679.04, -1668.20, 0.000, 0.000, 0.000, 15:11:00.716
20, -2082.69, -2024.86, -1691.13, -1679.40, 0.000, 0.000, 0.000, 15:11:00.716
21, -2074.80, -2012.20, -1681.85, -1666.05, 0.000, 0.000, 0.000, 15:11:00.728
22, -2068.12, -2008.87, -1680.26, -1672.01, 0.000, 0.000, 0.000, 15:11:00.728
23, -2069.26, -2006.42, -1680.79, -1673.93, 0.000, 0.000, 0.000, 15:11:00.728
24, -2053.15, -1990.01, -1667.99, -1646.86, 0.000, 0.000, 0.000, 15:11:00.728
25, -2057.88, -2003.94, -1678.29, -1657.66, 0.000, 0.000, 0.000, 15:11:00.744
26, -2063.46, -2004.03, -1684.44, -1674.89, 0.000, 0.000, 0.000, 15:11:00.745
27, -2057.55, -1996.45, -1672.95, -1668.02, 0.000, 0.000, 0.000, 15:11:00.764
28, -2039.42, -1976.82, -1647.60, -1641.98, 0.000, 0.000, 0.000, 15:11:00.764
29, -2021.80, -1964.36, -1640.15, -1618.77, 0.000, 0.000, 0.000, 15:11:00.764
30, -2036.25, -1973.52, -1653.03, -1642.35, 0.000, 0.000, 0.000, 15:11:00.764
31, -2043.74, -1974.59, -1653.98, -1650.31, 0.000, 0.000, 0.000, 15:11:00.773
32, -2039.54, -1981.73, -1658.31, -1644.15, 0.000, 0.000, 0.000, 15:11:00.773
33, -2034.95, -1974.04, -1654.41, -1631.72, 0.000, 0.000, 0.000, 15:11:00.797
34, -2062.38, -1995.53, -1675.69, -1658.38, 0.000, 0.000, 0.000, 15:11:00.797
35, -2074.98, -2011.10, -1685.32, -1677.26, 0.000, 0.000, 0.000, 15:11:00.797
36, -2073.55, -2005.57, -1683.11, -1663.80, 0.000, 0.000, 0.000, 15:11:00.797
37, -2079.24, -2013.15, -1686.68, -1659.02, 0.000, 0.000, 0.000, 15:11:00.803
38, -2086.43, -2018.56, -1691.95, -1675.16, 0.000, 0.000, 0.000, 15:11:00.803
39, -2094.82, -2031.37, -1705.88, -1691.81, 0.000, 0.000, 0.000, 15:11:00.834
40, -2077.16, -2012.86, -1683.05, -1669.26, 0.000, 0.000, 0.000, 15:11:00.834
41, -2066.27, -2000.28, -1672.58, -1651.89, 0.000, 0.000, 0.000, 15:11:00.835
42, -2076.46, -2005.77, -1674.63, -1666.55, 0.000, 0.000, 0.000, 15:11:00.835
43, -2083.97, -2019.55, -1692.74, -1680.01, 0.000, 0.000, 0.000, 15:11:00.850
44, -2072.71, -2000.05, -1678.65, -1665.19, 0.000, 0.000, 0.000, 15:11:00.850
45, -2069.62, -2002.25, -1674.32, -1656.47, 0.000, 0.000, 0.000, 15:11:00.850
46, -2071.81, -2004.12, -1677.08, -1671.00, 0.000, 0.000, 0.000, 15:11:00.851
47, -2068.72, -2000.46, -1674.27, -1671.59, 0.000, 0.000, 0.000, 15:11:00.870
48, -2064.51, -1998.04, -1669.04, -1658.38, 0.000, 0.000, 0.000, 15:11:00.870
49, -2044.75, -1982.16, -1651.78, -1633.53, 0.000, 0.000, 0.000, 15:11:00.871
50, -2059.58, -1996.26, -1670.89, -1660.16, 0.000, 0.000, 0.000, 15:11:00.871
51, -2049.10, -1984.27, -1656.48, -1641.77, 0.000, 0.000, 0.000, 15:11:00.894
52, -2041.75, -1979.29, -1646.42, -1632.94, 0.000, 0.000, 0.000, 15:11:00.894
53, -2038.36, -1976.32, -1636.92, -1622.79, 0.000, 0.000, 0.000, 15:11:00.896
54, -2054.09, -1988.63, -1658.17, -1653.85, 0.000, 0.000, 0.000, 15:11:00.896
55, -2065.91, -2005.79, -1678.72, -1664.94, 0.000, 0.000, 0.000, 15:11:00.896
56, -2072.65, -2015.92, -1690.67, -1672.40, 0.000, 0.000, 0.000, 15:11:00.896
57, -2070.10, -2010.41, -1681.10, -1663.63, 0.000, 0.000, 0.000, 15:11:00.923
58, -2086.99, -2030.67, -1691.49, -1686.48, 0.000, 0.000, 0.000, 15:11:00.924
59, -2080.73, -2022.89, -1689.00, -1680.00, 0.000, 0.000, 0.000, 15:11:00.926
60, -2081.51, -2024.28, -1685.21, -1674.43, 0.000, 0.000, 0.000, 15:11:00.926
61, -2084.03, -2021.50, -1684.13, -1665.82, 0.000, 0.000, 0.000, 15:11:00.926
62, -2081.84, -2011.08, -1685.15, -1670.86, 0.000, 0.000, 0.000, 15:11:00.926
63, -2073.70, -2009.24, -1685.35, -1679.17, 0.000, 0.000, 0.000, 15:11:00.938
64, -2069.80, -2001.18, -1681.35, -1667.67, 0.000, 0.000, 0.000, 15:11:00.938
65, -2065.09, -1997.04, -1679.92, -1657.74, 0.000, 0.000, 0.000, 15:11:00.938
66, -2059.15, -1992.47, -1672.88, -1663.96, 0.000, 0.000, 0.000, 15:11:00.939
67, -2050.61, -1991.13, -1668.53, -1664.12, 0.000, 0.000, 0.000, 15:11:00.953
68, -2044.89, -1977.63, -1655.81, -1644.71, 0.000, 0.000, 0.000, 15:11:00.953
69, -2051.92, -1988.29, -1662.85, -1649.75, 0.000, 0.000, 0.000, 15:11:00.968
70, -2035.96, -1976.30, -1646.24, -1645.65, 0.000, 0.000, 0.000, 15:11:00.969
71, -2059.64, -1993.34, -1673.03, -1664.96, 0.000, 0.000, 0.000, 15:11:00.969
72, -2042.11, -1971.39, -1657.08, -1634.22, 0.000, 0.000, 0.000, 15:11:00.969
73, -2046.62, -1976.12, -1655.84, -1632.33, 0.000, 0.000, 0.000, 15:11:00.983
74, -2073.91, -2003.13, -1676.69, -1663.30, 0.000, 0.000, 0.000, 15:11:00.983
75, -2073.60, -1999.70, -1680.04, -1671.53, 0.000, 0.000, 0.000, 15:11:00.998
76, -2064.06, -1991.95, -1667.61, -1656.09, 0.000, 0.000, 0.000, 15:11:00.998
77, -2059.88, -1989.59, -1667.59, -1648.45, 0.000, 0.000, 0.000, 15:11:00.998
78, -2086.09, -2016.93, -1694.41, -1679.08, 0.000, 0.000, 0.000, 15:11:01.000
79, -2098.58, -2032.83, -1710.70, -1701.45, 0.000, 0.000, 0.000, 15:11:01.013
80, -2073.92, -2009.14, -1683.37, -1672.22, 0.000, 0.000, 0.000, 15:11:01.013
81, -2065.86, -2000.42, -1676.26, -1659.54, 0.000, 0.000, 0.000, 15:11:01.034
82, -2078.88, -2007.85, -1688.53, -1679.59, 0.000, 0.000, 0.000, 15:11:01.034
83, -2078.49, -2008.22, -1696.76, -1680.98, 0.000, 0.000, 0.000, 15:11:01.035
84, -2056.25, -1984.09, -1668.72, -1646.05, 0.000, 0.000, 0.000, 15:11:01.035
85, -2065.65, -1995.29, -1679.33, -1660.12, 0.000, 0.000, 0.000, 15:11:01.058
86, -2062.24, -1995.92, -1679.89, -1674.67, 0.000, 0.000, 0.000, 15:11:01.059
87, -2064.86, -2001.46, -1674.84, -1673.80, 0.000, 0.000, 0.000, 15:11:01.059
88, -2038.68, -1973.91, -1648.29, -1634.51, 0.000, 0.000, 0.000, 15:11:01.060
89, -2045.08, -1977.68, -1649.24, -1633.79, 0.000, 0.000, 0.000, 15:11:01.061
90, -2060.85, -1994.11, -1670.88, -1659.23, 0.000, 0.000, 0.000, 15:11:01.061
91, -2061.30, -1991.99, -1668.67, -1655.76, 0.000, 0.000, 0.000, 15:11:01.088
92, -2059.45, -1990.57, -1661.67, -1650.60, 0.000, 0.000, 0.000, 15:11:01.089
93, -2063.81, -1993.32, -1662.77, -1646.34, 0.000, 0.000, 0.000, 15:11:01.089
94, -2064.33, -1999.18, -1666.53, -1656.28, 0.000, 0.000, 0.000, 15:11:01.089
95, -2084.40, -2016.54, -1688.81, -1673.40, 0.000, 0.000, 0.000, 15:11:01.103
96, -2069.51, -2001.55, -1671.63, -1653.88, 0.000, 0.000, 0.000, 15:11:01.103
97, -2066.24, -1992.02, -1669.32, -1639.43, 0.000, 0.000, 0.000, 15:11:01.104
98, -2091.49, -2021.95, -1693.98, -1679.52, 0.000, 0.000, 0.000, 15:11:01.104
99, -2099.18, -2030.18, -1702.14, -1694.37, 0.000, 0.000, 0.000, 15:11:01.118
100, -2083.39, -2016.39, -1691.21, -1666.74, 0.000, 0.000, 0.000, 15:11:01.118
101, -2073.40, -2003.36, -1680.70, -1661.25, 0.000, 0.000, 0.000, 15:11:01.119
102, -2074.13, -2011.74, -1688.31, -1686.64, 0.000, 0.000, 0.000, 15:11:01.119
103, -2069.44, -2001.59, -1685.97, -1681.72, 0.000, 0.000, 0.000, 15:11:01.134
104, -2051.62, -1985.28, -1665.58, -1653.30, 0.000, 0.000, 0.000, 15:11:01.135
105, -2039.92, -1973.47, -1653.08, -1640.86, 0.000, 0.000, 0.000, 15:11:01.148
106, -2026.97, -1949.29, -1639.21, -1621.53, 0.000, 0.000, 0.000, 15:11:01.149
107, -2067.07, -2001.35, -1673.36, -1676.98, 0.000, 0.000, 0.000, 15:11:01.149
108, -1991.76, -1917.94, -1611.76, -1595.76, 0.000, 0.000, 0.000, 15:11:01.149
109, -2057.61, -1967.46, -1658.13, -1623.08, 0.000, 0.000, 0.000, 15:11:01.223
110, -2056.28, -2005.85, -1658.19, -1662.91, 0.000, 0.000, 0.000, 15:11:01.223
111, -2070.43, -2026.54, -1677.73, -1688.25, 0.000, 0.000, 0.000, 15:11:01.223
112, -2100.00, -2040.04, -1707.86, -1694.17, 0.000, 0.000, 0.000, 15:11:01.223
113, -2073.97, -2015.35, -1680.27, -1665.54, 0.000, 0.000, 0.000, 15:11:01.224
114, -2089.78, -2028.10, -1692.36, -1684.30, 0.000, 0.000, 0.000, 15:11:01.224
115, -2102.37, -2038.80, -1708.56, -1695.78, 0.000, 0.000, 0.000, 15:11:01.224
116, -2084.04, -2019.95, -1691.85, -1675.03, 0.000, 0.000, 0.000, 15:11:01.224
117, -2075.61, -2001.57, -1679.11, -1655.95, 0.000, 0.000, 0.000, 15:11:01.224
118, -2067.41, -1996.27, -1680.58, -1666.67, 0.000, 0.000, 0.000, 15:11:01.224
119, -2098.83, -2035.23, -1713.57, -1703.95, 0.000, 0.000, 0.000, 15:11:01.224
120, -2084.09, -2014.36, -1689.64, -1676.59, 0.000, 0.000, 0.000, 15:11:01.224
121, -2064.12, -1998.88, -1672.62, -1661.07, 0.000, 0.000, 0.000, 15:11:01.225
122, -2063.70, -2000.93, -1671.42, -1664.77, 0.000, 0.000, 0.000, 15:11:01.225
123, -2066.80, -2003.71, -1681.09, -1668.35, 0.000, 0.000, 0.000, 15:11:01.254
124, -2044.52, -1975.91, -1653.37, -1641.26, 0.000, 0.000, 0.000, 15:11:01.254
125, -2039.66, -1971.90, -1647.92, -1638.78, 0.000, 0.000, 0.000, 15:11:01.254
126, -2046.90, -1982.54, -1660.21, -1651.56, 0.000, 0.000, 0.000, 15:11:01.254
127, -2046.89, -1987.77, -1663.14, -1657.29, 0.000, 0.000, 0.000, 15:11:01.255
128, -2037.43, -1969.08, -1648.60, -1634.24, 0.000, 0.000, 0.000, 15:11:01.255
129, -2024.33, -1965.46, -1638.18, -1623.02, 0.000, 0.000, 0.000, 15:11:01.268
130, -2049.88, -1988.12, -1665.63, -1661.28, 0.000, 0.000, 0.000, 15:11:01.269
131, -2067.38, -2003.84, -1679.34, -1675.78, 0.000, 0.000, 0.000, 15:11:01.271
132, -2054.52, -1991.61, -1666.78, -1656.17, 0.000, 0.000, 0.000, 15:11:01.271
133, -2065.32, -2001.50, -1677.35, -1661.37, 0.000, 0.000, 0.000, 15:11:01.287
134, -2066.41, -2012.48, -1678.90, -1678.56, 0.000, 0.000, 0.000, 15:11:01.288
135, -2085.60, -2035.55, -1703.82, -1697.47, 0.000, 0.000, 0.000, 15:11:01.299
136, -2086.81, -2026.39, -1696.82, -1681.68, 0.000, 0.000, 0.000, 15:11:01.300
137, -2071.64, -2011.84, -1677.16, -1668.99, 0.000, 0.000, 0.000, 15:11:01.300
138, -2083.35, -2020.70, -1690.09, -1688.28, 0.000, 0.000, 0.000, 15:11:01.300
139, -2099.03, -2029.81, -1697.11, -1696.41, 0.000, 0.000, 0.000, 15:11:01.353
140, -2070.51, -2002.62, -1673.03, -1660.85, 0.000, 0.000, 0.000, 15:11:01.353
141, -2061.73, -1998.37, -1667.57, -1649.02, 0.000, 0.000, 0.000, 15:11:01.354
142, -2067.77, -2003.99, -1674.76, -1661.13, 0.000, 0.000, 0.000, 15:11:01.354
143, -2075.00, -2008.02, -1683.15, -1672.45, 0.000, 0.000, 0.000, 15:11:01.354
144, -2052.03, -1991.55, -1656.63, -1648.34, 0.000, 0.000, 0.000, 15:11:01.354
145, -2063.25, -2002.10, -1669.83, -1654.60, 0.000, 0.000, 0.000, 15:11:01.355
146, -2057.13, -1994.18, -1669.45, -1657.85, 0.000, 0.000, 0.000, 15:11:01.355
147, -2059.83, -1993.10, -1676.05, -1667.90, 0.000, 0.000, 0.000, 15:11:01.374
148, -2062.29, -1996.34, -1677.27, -1656.89, 0.000, 0.000, 0.000, 15:11:01.374
149, -2045.89, -1977.10, -1658.59, -1635.88, 0.000, 0.000, 0.000, 15:11:01.374
150, -2055.72, -1991.77, -1669.21, -1659.84, 0.000, 0.000, 0.000, 15:11:01.374
151, -2065.54, -2002.58, -1676.76, -1670.11, 0.000, 0.000, 0.000, 15:11:01.375
152, -2054.76, -1995.69, -1661.72, -1644.16, 0.000, 0.000, 0.000, 15:11:01.375
153, -2040.07, -1982.14, -1649.54, -1633.18, 0.000, 0.000, 0.000, 15:11:01.390
154, -2068.48, -2012.34, -1682.98, -1670.73, 0.000, 0.000, 0.000, 15:11:01.390
155, -2074.44, -2013.47, -1682.01, -1681.36, 0.000, 0.000, 0.000, 15:11:01.391
156, -2086.08, -2019.59, -1692.31, -1677.32, 0.000, 0.000, 0.000, 15:11:01.391
157, -2077.56, -2008.19, -1681.49, -1668.35, 0.000, 0.000, 0.000, 15:11:01.407
158, -2071.27, -2003.81, -1682.23, -1676.22, 0.000, 0.000, 0.000, 15:11:01.407
159, -2075.48, -1999.09, -1677.72, -1667.52, 0.000, 0.000, 0.000, 15:11:01.430
160, -2060.64, -1995.52, -1667.65, -1648.77, 0.000, 0.000, 0.000, 15:11:01.430
161, -2029.64, -1966.51, -1642.12, -1624.28, 0.000, 0.000, 0.000, 15:11:01.431
162, -2055.62, -1999.88, -1665.50, -1660.23, 0.000, 0.000, 0.000, 15:11:01.431
163, -2063.46, -1995.06, -1675.65, -1663.17, 0.000, 0.000, 0.000, 15:11:01.436
164, -2041.00, -1981.39, -1653.78, -1645.98, 0.000, 0.000, 0.000, 15:11:01.437
165, -2076.81, -2009.67, -1680.41, -1663.52, 0.000, 0.000, 0.000, 15:11:01.455
166, -2069.65, -1994.37, -1672.68, -1652.49, 0.000, 0.000, 0.000, 15:11:01.455
167, -2068.19, -2007.13, -1678.86, -1682.86, 0.000, 0.000, 0.000, 15:11:01.456
168, -2042.77, -1976.40, -1650.01, -1645.93, 0.000, 0.000, 0.000, 15:11:01.456
169, -2054.77, -1977.82, -1663.89, -1634.22, 0.000, 0.000, 0.000, 15:11:01.465
170, -2080.10, -2010.86, -1691.66, -1679.25, 0.000, 0.000, 0.000, 15:11:01.466
171, -2076.30, -2003.04, -1689.86, -1671.73, 0.000, 0.000, 0.000, 15:11:01.480
172, -2074.83, -2017.42, -1683.89, -1669.43, 0.000, 0.000, 0.000, 15:11:01.480
173, -2079.35, -2018.83, -1681.59, -1663.78, 0.000, 0.000, 0.000, 15:11:01.480
174, -2081.89, -2017.99, -1689.63, -1676.07, 0.000, 0.000, 0.000, 15:11:01.481
175, -2082.63, -2026.84, -1697.82, -1688.18, 0.000, 0.000, 0.000, 15:11:01.494
176, -2089.53, -2027.21, -1691.06, -1672.88, 0.000, 0.000, 0.000, 15:11:01.494
177, -2075.49, -2020.05, -1682.95, -1670.03, 0.000, 0.000, 0.000, 15:11:01.509
178, -2088.35, -2020.90, -1696.16, -1688.78, 0.000, 0.000, 0.000, 15:11:01.509
179, -2069.42, -2006.91, -1686.72, -1681.47, 0.000, 0.000, 0.000, 15:11:01.510
180, -2069.90, -2005.28, -1686.77, -1674.86, 0.000, 0.000, 0.000, 15:11:01.510
181, -2063.94, -1997.95, -1670.32, -1661.70, 0.000, 0.000, 0.000, 15:11:01.524
182, -2064.56, -1998.85, -1677.32, -1670.48, 0.000, 0.000, 0.000, 15:11:01.524
183, -2046.47, -1983.96, -1665.43, -1658.96, 0.000, 0.000, 0.000, 15:11:01.539
184, -2057.02, -2002.37, -1674.17, -1661.82, 0.000, 0.000, 0.000, 15:11:01.539
185, -2044.10, -1992.32, -1660.34, -1640.86, 0.000, 0.000, 0.000, 15:11:01.539
186, -2038.17, -1983.41, -1656.85, -1652.52, 0.000, 0.000, 0.000, 15:11:01.539
187, -2063.93, -2001.59, -1683.98, -1676.72, 0.000, 0.000, 0.000, 15:11:01.557
188, -2054.71, -1987.54, -1667.11, -1652.93, 0.000, 0.000, 0.000, 15:11:01.557
189, -2048.81, -1984.31, -1662.37, -1645.83, 0.000, 0.000, 0.000, 15:11:01.578
190, -2052.55, -1991.38, -1660.46, -1650.15, 0.000, 0.000, 0.000, 15:11:01.578
191, -2061.00, -1989.06, -1666.28, -1661.94, 0.000, 0.000, 0.000, 15:11:01.579
192, -2068.91, -2005.11, -1671.57, -1655.82, 0.000, 0.000, 0.000, 15:11:01.579
193, -2069.34, -2006.52, -1668.78, -1651.11, 0.000, 0.000, 0.000, 15:11:01.584
194, -2081.62, -2018.70, -1683.89, -1669.96, 0.000, 0.000, 0.000, 15:11:01.584
195, -2077.55, -2015.83, -1683.72, -1672.82, 0.000, 0.000, 0.000, 15:11:01.605
196, -2083.95, -2016.70, -1694.04, -1668.64, 0.000, 0.000, 0.000, 15:11:01.606
197, -2065.18, -1998.25, -1675.30, -1656.68, 0.000, 0.000, 0.000, 15:11:01.606
198, -2071.77, -2001.33, -1690.31, -1677.94, 0.000, 0.000, 0.000, 15:11:01.606
199, -2086.20, -2017.83, -1699.61, -1689.68, 0.000, 0.000, 0.000, 15:11:01.614
200, -2083.32, -2020.96, -1703.54, -1680.98, 0.000, 0.000, 0.000, 15:11:01.614
0, -2075.30, -2016.55, -1689.35, -1666.02, 0.000, 0.000, 0.000, 15:11:01.614
1, -2067.25, -2008.06, -1680.59, -1683.24, 0.000, 0.000, 0.000, 15:11:01.629
2, -2086.52, -2032.18, -1695.18, -1699.25, 0.000, 0.000, 0.000, 15:11:01.629
3, -2070.98, -2013.26, -1677.27, -1665.31, 0.000, 0.000, 0.000, 15:11:01.649
4, -2056.54, -1994.12, -1661.76, -1652.43, 0.000, 0.000, 0.000, 15:11:01.650
5, -2055.47, -1984.38, -1660.90, -1648.22, 0.000, 0.000, 0.000, 15:11:01.657
6, -2064.97, -1986.58, -1660.48, -1647.73, 0.000, 0.000, 0.000, 15:11:01.658
7, -2062.55, -1995.25, -1663.80, -1641.72, 0.000, 0.000, 0.000, 15:11:01.658
8, -2058.71, -1985.74, -1663.82, -1630.77, 0.000, 0.000, 0.000, 15:11:01.659
9, -2071.94, -2012.02, -1673.10, -1667.31, 0.000, 0.000, 0.000, 15:11:01.674
10, -2072.64, -2015.89, -1671.26, -1673.87, 0.000, 0.000, 0.000, 15:11:01.674
11, -2066.53, -2012.50, -1670.33, -1658.08, 0.000, 0.000, 0.000, 15:11:01.681
12, -2087.70, -2028.56, -1692.92, -1685.17, 0.000, 0.000, 0.000, 15:11:01.681
13, -2069.70, -2011.53, -1680.79, -1678.41, 0.000, 0.000, 0.000, 15:11:01.692
14, -2078.79, -2016.17, -1692.20, -1688.24, 0.000, 0.000, 0.000, 15:11:01.692
15, -2059.53, -1992.36, -1676.53, -1655.56, 0.000, 0.000, 0.000, 15:11:01.712
16, -2078.74, -2007.29, -1696.32, -1676.27, 0.000, 0.000, 0.000, 15:11:01.712
17, -2083.90, -2016.54, -1699.95, -1691.09, 0.000, 0.000, 0.000, 15:11:01.713
18, -2084.33, -2024.41, -1699.96, -1692.83, 0.000, 0.000, 0.000, 15:11:01.713
19, -2092.55, -2017.67, -1702.55, -1682.94, 0.000, 0.000, 0.000, 15:11:01.725
20, -2074.26, -2017.18, -1685.40, -1670.49, 0.000, 0.000, 0.000, 15:11:01.725
21, -2066.92, -2012.55, -1682.89, -1675.95, 0.000, 0.000, 0.000, 15:11:01.734
22, -2056.12, -2001.67, -1665.58, -1660.09, 0.000, 0.000, 0.000, 15:11:01.734
23, -2059.01, -1998.89, -1668.04, -1650.20, 0.000, 0.000, 0.000, 15:11:01.735
24, -2049.62, -1993.20, -1653.86, -1640.14, 0.000, 0.000, 0.000, 15:11:01.735
25, -2042.67, -1977.37, -1654.06, -1639.33, 0.000, 0.000, 0.000, 15:11:01.754
26, -2068.36, -2006.26, -1670.81, -1660.63, 0.000, 0.000, 0.000, 15:11:01.754
27, -2045.62, -1981.28, -1649.02, -1637.54, 0.000, 0.000, 0.000, 15:11:01.770
28, -2044.20, -1979.47, -1642.10, -1629.41, 0.000, 0.000, 0.000, 15:11:01.770
29, -2071.19, -2000.99, -1679.42, -1665.97, 0.000, 0.000, 0.000, 15:11:01.771
30, -2084.06, -2011.13, -1684.78, -1674.64, 0.000, 0.000, 0.000, 15:11:01.771
31, -2040.91, -1977.42, -1649.44, -1629.55, 0.000, 0.000, 0.000, 15:11:01.796
32, -2064.46, -2010.50, -1675.71, -1661.74, 0.000, 0.000, 0.000, 15:11:01.796
33, -2083.84, -2027.22, -1696.77, -1692.82, 0.000, 0.000, 0.000, 15:11:01.796
34, -2074.12, -2010.88, -1686.26, -1687.02, 0.000, 0.000, 0.000, 15:11:01.797
35, -2063.53, -2000.27, -1682.18, -1668.56, 0.000, 0.000, 0.000, 15:11:01.797
36, -2062.92, -1992.67, -1680.59, -1658.57, 0.000, 0.000, 0.000, 15:11:01.797
37, -2068.46, -2000.00, -1687.30, -1670.60, 0.000, 0.000, 0.000, 15:11:01.809
38, -2068.46, -1996.83, -1686.71, -1671.97, 0.000, 0.000, 0.000, 15:11:01.809
39, -2057.89, -1980.66, -1664.37, -1649.74, 0.000, 0.000, 0.000, 15:11:01.828
40, -2057.93, -1982.37, -1668.49, -1643.85, 0.000, 0.000, 0.000, 15:11:01.828
41, -2072.54, -2002.21, -1689.40, -1676.74, 0.000, 0.000, 0.000, 15:11:01.829
42, -2063.79, -1990.92, -1674.16, -1665.30, 0.000, 0.000, 0.000, 15:11:01.829
43, -2040.67, -1967.10, -1649.95, -1625.75, 0.000, 0.000, 0.000, 15:11:01.840
44, -2041.13, -1977.06, -1646.52, -1626.77, 0.000, 0.000, 0.000, 15:11:01.840
45, -2068.58, -2001.70, -1673.69, -1658.44, 0.000, 0.000, 0.000, 15:11:01.855
46, -2062.06, -1999.69, -1674.39, -1667.34, 0.000, 0.000, 0.000, 15:11:01.855
47, -2072.34, -2012.78, -1681.81, -1664.29, 0.000, 0.000, 0.000, 15:11:01.855
48, -2053.88, -1990.05, -1660.89, -1648.46, 0.000, 0.000, 0.000, 15:11:01.855
49, -2079.95, -2017.38, -1685.13, -1679.02, 0.000, 0.000, 0.000, 15:11:01.875
50, -2078.90, -2017.12, -1684.30, -1682.25, 0.000, 0.000, 0.000, 15:11:01.875
51, -2064.45, -2001.11, -1670.54, -1656.44, 0.000, 0.000, 0.000, 15:11:01.884
52, -2064.13, -2001.09, -1672.51, -1650.74, 0.000, 0.000, 0.000, 15:11:01.884
53, -2078.02, -2015.10, -1689.17, -1673.40, 0.000, 0.000, 0.000, 15:11:01.885
54, -2069.03, -2006.10, -1688.56, -1671.73, 0.000, 0.000, 0.000, 15:11:01.885
55, -2063.98, -2000.81, -1680.01, -1656.93, 0.000, 0.000, 0.000, 15:11:01.904
56, -2054.91, -1992.90, -1667.74, -1649.46, 0.000, 0.000, 0.000, 15:11:01.904
57, -2069.18, -2007.77, -1689.46, -1681.60, 0.000, 0.000, 0.000, 15:11:01.921
58, -2056.71, -1995.67, -1678.17, -1664.72, 0.000, 0.000, 0.000, 15:11:01.921
59, -2052.17, -1986.93, -1670.76, -1647.85, 0.000, 0.000, 0.000, 15:11:01.921
60, -2067.01, -2007.05, -1684.28, -1660.90, 0.000, 0.000, 0.000, 15:11:01.921
61, -2063.56, -2008.15, -1676.43, -1665.48, 0.000, 0.000, 0.000, 15:11:01.930
62, -2055.32, -1995.38, -1667.22, -1659.04, 0.000, 0.000, 0.000, 15:11:01.931
63, -2058.30, -2001.18, -1666.13, -1645.45, 0.000, 0.000, 0.000, 15:11:01.951
64, -2062.72, -1999.65, -1665.74, -1650.60, 0.000, 0.000, 0.000, 15:11:01.951
65, -2085.87, -2017.95, -1686.60, -1683.96, 0.000, 0.000, 0.000, 15:11:01.951
66, -2072.59, -2002.31, -1670.36, -1664.79, 0.000, 0.000, 0.000, 15:11:01.951
67, -2066.24, -1999.14, -1660.25, -1644.99, 0.000, 0.000, 0.000, 15:11:01.959
68, -2065.22, -1995.88, -1666.85, -1649.86, 0.000, 0.000, 0.000, 15:11:01.960
69, -2074.01, -2014.87, -1680.84, -1675.93, 0.000, 0.000, 0.000, 15:11:01.974
70, -2082.77, -2022.37, -1693.24, -1693.08, 0.000, 0.000, 0.000, 15:11:01.974
71, -2060.84, -2000.52, -1669.43, -1659.76, 0.000, 0.000, 0.000, 15:11:01.975
72, -2074.92, -2009.45, -1688.64, -1673.39, 0.000, 0.000, 0.000, 15:11:01.975
73, -2089.27, -2024.23, -1703.98, -1698.67, 0.000, 0.000, 0.000, 15:11:01.996
74, -2071.11, -2006.80, -1687.36, -1681.16, 0.000, 0.000, 0.000, 15:11:01.996
75, -2061.01, -2002.58, -1677.71, -1662.60, 0.000, 0.000, 0.000, 15:11:02.005
76, -2056.07, -1987.34, -1672.13, -1650.52, 0.000, 0.000, 0.000, 15:11:02.005
77, -2081.60, -2004.65, -1698.35, -1682.21, 0.000, 0.000, 0.000, 15:11:02.007
78, -2075.94, -2004.12, -1691.59, -1683.51, 0.000, 0.000, 0.000, 15:11:02.007
79, -2063.20, -2006.60, -1687.55, -1672.33, 0.000, 0.000, 0.000, 15:11:02.037
80, -2049.25, -1991.13, -1668.91, -1653.99, 0.000, 0.000, 0.000, 15:11:02.037
81, -2070.84, -2006.61, -1681.32, -1668.52, 0.000, 0.000, 0.000, 15:11:02.049
82, -2065.90, -1991.80, -1675.90, -1657.65, 0.000, 0.000, 0.000, 15:11:02.049
83, -2065.40, -1994.00, -1669.82, -1651.33, 0.000, 0.000, 0.000, 15:11:02.050
84, -2050.47, -1991.52, -1659.70, -1644.82, 0.000, 0.000, 0.000, 15:11:02.050
85, -2066.98, -2008.39, -1668.65, -1672.52, 0.000, 0.000, 0.000, 15:11:02.050
86, -2068.93, -2007.59, -1666.09, -1669.62, 0.000, 0.000, 0.000, 15:11:02.050
87, -2065.92, -2004.93, -1669.96, -1658.44, 0.000, 0.000, 0.000, 15:11:02.064
88, -2042.80, -1975.73, -1642.77, -1630.36, 0.000, 0.000, 0.000, 15:11:02.064
89, -2062.19, -1998.22, -1671.57, -1668.10, 0.000, 0.000, 0.000, 15:11:02.065
90, -2063.31, -1994.38, -1677.52, -1675.50, 0.000, 0.000, 0.000, 15:11:02.065
91, -2043.68, -1967.94, -1655.89, -1638.55, 0.000, 0.000, 0.000, 15:11:02.082
92, -2051.85, -1994.70, -1672.21, -1646.38, 0.000, 0.000, 0.000, 15:11:02.082
93, -2085.39, -2014.73, -1697.53, -1680.70, 0.000, 0.000, 0.000, 15:11:02.094
94, -2079.08, -2011.44, -1688.60, -1681.12, 0.000, 0.000, 0.000, 15:11:02.094
95, -2062.38, -1993.75, -1673.58, -1656.21, 0.000, 0.000, 0.000, 15:11:02.094
96, -2064.09, -1991.33, -1670.30, -1655.49, 0.000, 0.000, 0.000, 15:11:02.094
97, -2061.44, -1985.51, -1668.55, -1650.42, 0.000, 0.000, 0.000, 15:11:02.124
98, -2070.05, -2000.00, -1680.35, -1669.18, 0.000, 0.000, 0.000, 15:11:02.124
99, -2068.72, -1998.30, -1681.60, -1656.95, 0.000, 0.000, 0.000, 15:11:02.125
100, -2062.33, -1996.88, -1673.58, -1650.36, 0.000, 0.000, 0.000, 15:11:02.125
101, -2069.61, -1997.06, -1673.53, -1664.52, 0.000, 0.000, 0.000, 15:11:02.140
102, -2071.26, -2005.74, -1677.84, -1660.26, 0.000, 0.000, 0.000, 15:11:02.141
103, -2058.55, -1994.89, -1662.57, -1643.18, 0.000, 0.000, 0.000, 15:11:02.141
104, -2069.43, -2010.02, -1673.42, -1658.48, 0.000, 0.000, 0.000, 15:11:02.141
105, -2060.74, -1998.97, -1666.87, -1667.40, 0.000, 0.000, 0.000, 15:11:02.158
106, -2062.19, -1996.56, -1667.84, -1664.72, 0.000, 0.000, 0.000, 15:11:02.158
107, -2050.49, -1983.21, -1655.38, -1646.87, 0.000, 0.000, 0.000, 15:11:02.158
108, -2061.03, -1997.13, -1665.14, -1646.18, 0.000, 0.000, 0.000, 15:11:02.158
109, -2076.04, -2004.86, -1684.64, -1674.85, 0.000, 0.000, 0.000, 15:11:02.171
110, -2069.55, -1996.86, -1679.25, -1663.23, 0.000, 0.000, 0.000, 15:11:02.171
111, -2069.51, -1995.04, -1681.61, -1653.24, 0.000, 0.000, 0.000, 15:11:02.186
112, -2046.61, -1979.85, -1659.98, -1640.15, 0.000, 0.000, 0.000, 15:11:02.186
113, -2070.88, -2000.99, -1686.01, -1676.55, 0.000, 0.000, 0.000, 15:11:02.205
114, -2082.13, -2006.07, -1695.21, -1685.20, 0.000, 0.000, 0.000, 15:11:02.205
115, -2060.00, -1990.29, -1671.47, -1656.62, 0.000, 0.000, 0.000, 15:11:02.205
116, -2064.90, -1992.92, -1676.76, -1655.09, 0.000, 0.000, 0.000, 15:11:02.205
117, -2071.57, -1996.86, -1683.82, -1671.41, 0.000, 0.000, 0.000, 15:11:02.215
118, -2069.76, -2004.72, -1687.82, -1678.26, 0.000, 0.000, 0.000, 15:11:02.216
