%OpenBCI Raw EEG Data
%
%Sample Rate = 200.0 Hz
%First Column = SampleIndex
%Last Column = Timestamp 
%Other Columns = EEG data in microvolts followed by Accel Data (in G) interleaved with Aux Data
0, -1926.38, -1691.61, -1439.82, -1454.63, 0.000, 0.000, 0.000, 15:23:54.431
1, -1901.09, -1660.76, -1418.82, -1431.39, 0.000, 0.000, 0.000, 15:23:54.441
2, -1842.31, -1603.16, -1356.12, -1375.74, 0.000, 0.000, 0.000, 15:23:54.441
3, -1839.00, -1588.76, -1349.47, -1374.85, 0.000, 0.000, 0.000, 15:23:54.454
4, -1917.64, -1675.01, -1432.97, -1457.32, 0.000, 0.000, 0.000, 15:23:54.455
5, -1884.46, -1633.56, -1400.94, -1420.61, 0.000, 0.000, 0.000, 15:23:54.455
6, -1858.37, -1614.58, -1366.17, -1395.77, 0.000, 0.000, 0.000, 15:23:54.456
7, -1838.57, -1583.74, -1351.41, -1358.48, 0.000, 0.000, 0.000, 15:23:54.471
8, -1908.11, -1663.30, -1424.18, -1453.53, 0.000, 0.000, 0.000, 15:23:54.471
9, -1893.66, -1647.48, -1403.16, -1431.15, 0.000, 0.000, 0.000, 15:23:54.484
10, -1839.92, -1592.35, -1355.14, -1384.91, 0.000, 0.000, 0.000, 15:23:54.485
11, -1842.96, -1583.83, -1355.84, -1379.59, 0.000, 0.000, 0.000, 15:23:54.485
12, -1897.88, -1648.97, -1415.44, -1426.81, 0.000, 0.000, 0.000, 15:23:54.485
13, -1893.04, -1637.86, -1405.95, -1433.89, 0.000, 0.000, 0.000, 15:23:54.499
14, -1845.35, -1600.64, -1364.38, -1383.51, 0.000, 0.000, 0.000, 15:23:54.499
15, -1836.06, -1588.61, -1354.14, -1370.23, 0.000, 0.000, 0.000, 15:23:54.516
16, -1910.21, -1666.86, -1423.93, -1424.76, 0.000, 0.000, 0.000, 15:23:54.517
17, -1895.17, -1646.68, -1405.20, -1438.05, 0.000, 0.000, 0.000, 15:23:54.517
18, -1850.98, -1610.04, -1364.53, -1387.27, 0.000, 0.000, 0.000, 15:23:54.518
19, -1837.69, -1593.39, -1351.66, -1372.29, 0.000, 0.000, 0.000, 15:23:54.529
20, -1906.51, -1670.39, -1425.95, -1442.53, 0.000, 0.000, 0.000, 15:23:54.530
21, -1879.65, -1621.62, -1394.76, -1380.58, 0.000, 0.000, 0.000, 15:23:54.550
22, -1861.80, -1619.23, -1379.52, -1414.89, 0.000, 0.000, 0.000, 15:23:54.551
23, -1843.00, -1594.06, -1359.63, -1394.52, 0.000, 0.000, 0.000, 15:23:54.551
24, -1901.40, -1661.59, -1417.27, -1449.06, 0.000, 0.000, 0.000, 15:23:54.551
25, -1883.22, -1641.26, -1402.68, -1427.36, 0.000, 0.000, 0.000, 15:23:54.674
26, -1840.03, -1594.45, -1357.40, -1382.83, 0.000, 0.000, 0.000, 15:23:54.674
27, -1837.28, -1582.03, -1353.61, -1365.99, 0.000, 0.000, 0.000, 15:23:54.716
28, -1914.25, -1667.62, -1429.15, -1450.46, 0.000, 0.000, 0.000, 15:23:54.716
29, -1880.51, -1634.22, -1396.82, -1406.19, 0.000, 0.000, 0.000, 15:23:54.717
30, -1836.70, -1589.09, -1349.74, -1371.03, 0.000, 0.000, 0.000, 15:23:54.718
31, -1843.15, -1588.66, -1364.13, -1385.54, 0.000, 0.000, 0.000, 15:23:54.718
32, -1911.74, -1673.01, -1436.75, -1466.72, 0.000, 0.000, 0.000, 15:23:54.719
33, -1866.63, -1617.76, -1383.82, -1403.79, 0.000, 0.000, 0.000, 15:23:54.720
34, -1833.87, -1592.49, -1356.22, -1396.73, 0.000, 0.000, 0.000, 15:23:54.724
35, -1836.05, -1584.24, -1359.32, -1389.54, 0.000, 0.000, 0.000, 15:23:54.725
36, -1904.58, -1657.04, -1427.33, -1450.96, 0.000, 0.000, 0.000, 15:23:54.725
37, -1871.06, -1620.97, -1396.26, -1391.80, 0.000, 0.000, 0.000, 15:23:54.736
38, -1830.59, -1584.14, -1348.54, -1380.56, 0.000, 0.000, 0.000, 15:23:54.736
39, -1831.48, -1585.08, -1341.21, -1370.16, 0.000, 0.000, 0.000, 15:23:54.737
40, -1893.36, -1643.15, -1402.88, -1430.94, 0.000, 0.000, 0.000, 15:23:54.738
41, -1878.03, -1629.30, -1389.55, -1409.93, 0.000, 0.000, 0.000, 15:23:54.739
42, -1857.75, -1610.64, -1365.83, -1395.82, 0.000, 0.000, 0.000, 15:23:54.739
43, -1835.68, -1589.98, -1346.03, -1354.94, 0.000, 0.000, 0.000, 15:23:54.752
44, -1920.75, -1676.54, -1431.87, -1469.21, 0.000, 0.000, 0.000, 15:23:54.752
45, -1884.38, -1634.90, -1386.88, -1411.32, 0.000, 0.000, 0.000, 15:23:54.753
46, -1844.05, -1599.12, -1351.74, -1369.89, 0.000, 0.000, 0.000, 15:23:54.754
47, -1838.68, -1598.63, -1343.55, -1378.21, 0.000, 0.000, 0.000, 15:23:54.754
48, -1909.22, -1676.12, -1419.28, -1450.27, 0.000, 0.000, 0.000, 15:23:54.755
49, -1891.09, -1652.06, -1397.21, -1425.49, 0.000, 0.000, 0.000, 15:23:54.755
50, -1855.48, -1614.24, -1365.03, -1387.51, 0.000, 0.000, 0.000, 15:23:54.756
51, -1841.95, -1602.30, -1345.74, -1385.58, 0.000, 0.000, 0.000, 15:23:54.756
52, -1908.66, -1676.38, -1413.89, -1457.38, 0.000, 0.000, 0.000, 15:23:54.757
53, -1894.40, -1655.61, -1396.13, -1428.08, 0.000, 0.000, 0.000, 15:23:54.758
54, -1856.01, -1618.08, -1365.29, -1390.50, 0.000, 0.000, 0.000, 15:23:54.758
55, -1834.70, -1591.91, -1334.79, -1364.11, 0.000, 0.000, 0.000, 15:23:54.769
56, -1919.41, -1682.03, -1425.70, -1446.61, 0.000, 0.000, 0.000, 15:23:54.769
57, -1898.78, -1649.88, -1403.68, -1425.24, 0.000, 0.000, 0.000, 15:23:54.770
58, -1858.41, -1617.49, -1364.47, -1388.86, 0.000, 0.000, 0.000, 15:23:54.770
59, -1836.92, -1592.54, -1341.49, -1367.05, 0.000, 0.000, 0.000, 15:23:54.809
60, -1924.53, -1691.35, -1424.03, -1463.01, 0.000, 0.000, 0.000, 15:23:54.810
61, -1904.28, -1660.57, -1410.56, -1417.02, 0.000, 0.000, 0.000, 15:23:54.811
62, -1854.83, -1617.99, -1365.98, -1387.44, 0.000, 0.000, 0.000, 15:23:54.811
63, -1843.76, -1604.95, -1350.25, -1362.70, 0.000, 0.000, 0.000, 15:23:54.824
64, -1908.78, -1678.03, -1414.53, -1426.37, 0.000, 0.000, 0.000, 15:23:54.825
65, -1911.21, -1664.61, -1400.50, -1440.57, 0.000, 0.000, 0.000, 15:23:54.826
66, -1867.50, -1629.14, -1366.89, -1380.18, 0.000, 0.000, 0.000, 15:23:54.826
67, -1849.24, -1603.35, -1351.06, -1383.50, 0.000, 0.000, 0.000, 15:23:54.826
68, -1920.02, -1682.72, -1413.81, -1450.53, 0.000, 0.000, 0.000, 15:23:54.826
69, -1894.91, -1644.91, -1384.85, -1413.62, 0.000, 0.000, 0.000, 15:23:54.868
70, -1858.05, -1619.13, -1356.73, -1370.14, 0.000, 0.000, 0.000, 15:23:54.870
71, -1840.39, -1601.68, -1339.36, -1374.06, 0.000, 0.000, 0.000, 15:23:54.870
72, -1912.38, -1678.39, -1419.59, -1433.41, 0.000, 0.000, 0.000, 15:23:54.870
73, -1894.02, -1648.40, -1395.46, -1418.36, 0.000, 0.000, 0.000, 15:23:54.871
74, -1853.63, -1623.29, -1354.51, -1383.49, 0.000, 0.000, 0.000, 15:23:54.871
75, -1826.05, -1572.58, -1321.62, -1338.98, 0.000, 0.000, 0.000, 15:23:54.871
76, -1911.48, -1679.20, -1413.06, -1424.75, 0.000, 0.000, 0.000, 15:23:54.872
77, -1891.56, -1651.05, -1389.85, -1421.65, 0.000, 0.000, 0.000, 15:23:54.872
78, -1841.74, -1599.51, -1347.57, -1364.70, 0.000, 0.000, 0.000, 15:23:54.872
79, -1854.31, -1603.56, -1358.40, -1370.46, 0.000, 0.000, 0.000, 15:23:54.874
80, -1929.91, -1688.31, -1433.83, -1452.76, 0.000, 0.000, 0.000, 15:23:54.875
81, -1903.27, -1657.46, -1402.58, -1420.55, 0.000, 0.000, 0.000, 15:23:54.875
82, -1844.66, -1605.06, -1352.20, -1351.96, 0.000, 0.000, 0.000, 15:23:54.875
83, -1833.22, -1587.34, -1330.00, -1345.12, 0.000, 0.000, 0.000, 15:23:54.877
84, -1909.56, -1674.56, -1418.11, -1455.02, 0.000, 0.000, 0.000, 15:23:54.877
85, -1898.60, -1655.81, -1401.71, -1427.41, 0.000, 0.000, 0.000, 15:23:54.877
86, -1849.19, -1610.67, -1362.47, -1384.40, 0.000, 0.000, 0.000, 15:23:54.878
87, -1825.54, -1585.17, -1336.01, -1364.60, 0.000, 0.000, 0.000, 15:23:54.878
88, -1892.23, -1658.34, -1400.98, -1425.11, 0.000, 0.000, 0.000, 15:23:54.879
89, -1886.39, -1638.09, -1387.58, -1413.65, 0.000, 0.000, 0.000, 15:23:54.879
90, -1831.77, -1596.51, -1344.89, -1366.54, 0.000, 0.000, 0.000, 15:23:54.879
91, -1827.62, -1577.18, -1337.23, -1348.39, 0.000, 0.000, 0.000, 15:23:54.890
92, -1918.45, -1673.41, -1426.72, -1435.08, 0.000, 0.000, 0.000, 15:23:54.890
93, -1885.11, -1632.34, -1400.36, -1407.43, 0.000, 0.000, 0.000, 15:23:54.942
94, -1849.87, -1602.63, -1361.42, -1369.40, 0.000, 0.000, 0.000, 15:23:54.942
95, -1851.96, -1600.92, -1363.84, -1377.76, 0.000, 0.000, 0.000, 15:23:54.942
96, -1910.46, -1670.03, -1419.47, -1432.17, 0.000, 0.000, 0.000, 15:23:54.942
97, -1871.95, -1619.45, -1381.61, -1362.60, 0.000, 0.000, 0.000, 15:23:54.950
98, -1853.20, -1609.49, -1368.18, -1399.13, 0.000, 0.000, 0.000, 15:23:54.950
99, -1836.32, -1595.74, -1355.87, -1369.16, 0.000, 0.000, 0.000, 15:23:54.961
100, -1900.66, -1666.04, -1417.89, -1433.51, 0.000, 0.000, 0.000, 15:23:54.966
101, -1890.11, -1644.99, -1401.22, -1427.52, 0.000, 0.000, 0.000, 15:23:54.966
102, -1843.10, -1606.00, -1358.50, -1383.96, 0.000, 0.000, 0.000, 15:23:54.967
103, -1832.04, -1590.93, -1352.76, -1367.64, 0.000, 0.000, 0.000, 15:23:54.967
104, -1899.66, -1662.21, -1418.24, -1424.14, 0.000, 0.000, 0.000, 15:23:54.968
105, -1870.08, -1630.21, -1389.44, -1414.36, 0.000, 0.000, 0.000, 15:23:55.043
106, -1844.01, -1604.46, -1362.43, -1386.58, 0.000, 0.000, 0.000, 15:23:55.043
107, -1831.83, -1590.23, -1348.55, -1368.36, 0.000, 0.000, 0.000, 15:23:55.114
108, -1897.18, -1659.85, -1412.69, -1418.06, 0.000, 0.000, 0.000, 15:23:55.115
109, -1879.78, -1641.67, -1391.89, -1428.58, 0.000, 0.000, 0.000, 15:23:55.115
110, -1837.09, -1596.91, -1351.76, -1382.27, 0.000, 0.000, 0.000, 15:23:55.115
111, -1834.63, -1583.02, -1344.80, -1360.21, 0.000, 0.000, 0.000, 15:23:55.119
112, -1904.09, -1656.64, -1415.37, -1433.26, 0.000, 0.000, 0.000, 15:23:55.119
113, -1872.38, -1622.36, -1378.78, -1386.55, 0.000, 0.000, 0.000, 15:23:55.144
114, -1827.94, -1582.69, -1333.70, -1344.56, 0.000, 0.000, 0.000, 15:23:55.145
115, -1864.21, -1609.00, -1368.26, -1393.42, 0.000, 0.000, 0.000, 15:23:55.145
116, -1901.41, -1657.16, -1408.99, -1429.24, 0.000, 0.000, 0.000, 15:23:55.145
117, -1893.20, -1642.02, -1386.35, -1416.52, 0.000, 0.000, 0.000, 15:23:55.195
118, -1853.25, -1611.99, -1358.49, -1380.07, 0.000, 0.000, 0.000, 15:23:55.204
119, -1856.96, -1608.63, -1372.40, -1380.84, 0.000, 0.000, 0.000, 15:23:55.230
120, -1914.80, -1675.13, -1430.29, -1428.08, 0.000, 0.000, 0.000, 15:23:55.230
121, -1915.23, -1660.76, -1424.90, -1446.19, 0.000, 0.000, 0.000, 15:23:55.230
122, -1853.94, -1609.26, -1374.19, -1389.37, 0.000, 0.000, 0.000, 15:23:55.231
123, -1848.97, -1596.55, -1357.82, -1372.74, 0.000, 0.000, 0.000, 15:23:55.250
124, -1925.13, -1683.14, -1437.53, -1451.66, 0.000, 0.000, 0.000, 15:23:55.251
125, -1890.25, -1639.39, -1407.31, -1411.01, 0.000, 0.000, 0.000, 15:23:55.252
126, -1844.59, -1610.91, -1366.02, -1369.31, 0.000, 0.000, 0.000, 15:23:55.252
127, -1823.80, -1577.91, -1346.05, -1344.62, 0.000, 0.000, 0.000, 15:23:55.253
128, -1906.92, -1666.74, -1420.58, -1436.20, 0.000, 0.000, 0.000, 15:23:55.254
129, -1891.83, -1641.27, -1397.23, -1409.51, 0.000, 0.000, 0.000, 15:23:55.255
130, -1846.88, -1608.10, -1356.12, -1371.81, 0.000, 0.000, 0.000, 15:23:55.255
131, -1830.60, -1580.35, -1334.51, -1346.66, 0.000, 0.000, 0.000, 15:23:55.255
132, -1895.09, -1659.08, -1407.70, -1421.99, 0.000, 0.000, 0.000, 15:23:55.256
133, -1877.48, -1634.39, -1385.40, -1398.49, 0.000, 0.000, 0.000, 15:23:55.287
134, -1833.37, -1591.76, -1343.09, -1356.34, 0.000, 0.000, 0.000, 15:23:55.287
135, -1844.91, -1591.38, -1346.44, -1353.45, 0.000, 0.000, 0.000, 15:23:55.413
136, -1903.55, -1668.32, -1411.72, -1446.54, 0.000, 0.000, 0.000, 15:23:55.414
137, -1890.24, -1643.95, -1407.35, -1416.55, 0.000, 0.000, 0.000, 15:23:55.414
138, -1848.89, -1598.73, -1360.64, -1355.91, 0.000, 0.000, 0.000, 15:23:55.414
139, -1830.62, -1580.34, -1334.79, -1368.52, 0.000, 0.000, 0.000, 15:23:55.414
140, -1918.53, -1669.96, -1432.52, -1456.22, 0.000, 0.000, 0.000, 15:23:55.414
141, -1897.23, -1647.74, -1412.95, -1427.99, 0.000, 0.000, 0.000, 15:23:55.436
142, -1848.37, -1609.93, -1365.25, -1386.04, 0.000, 0.000, 0.000, 15:23:55.437
143, -1818.05, -1579.14, -1338.93, -1357.65, 0.000, 0.000, 0.000, 15:23:55.463
144, -1897.29, -1660.42, -1415.77, -1438.09, 0.000, 0.000, 0.000, 15:23:55.463
145, -1877.82, -1638.96, -1391.41, -1411.35, 0.000, 0.000, 0.000, 15:23:55.463
146, -1841.40, -1608.57, -1356.52, -1381.51, 0.000, 0.000, 0.000, 15:23:55.464
147, -1844.79, -1603.60, -1362.68, -1376.25, 0.000, 0.000, 0.000, 15:23:55.466
148, -1899.88, -1668.77, -1421.11, -1438.44, 0.000, 0.000, 0.000, 15:23:55.467
149, -1877.89, -1641.17, -1386.19, -1415.52, 0.000, 0.000, 0.000, 15:23:55.467
150, -1840.86, -1608.62, -1356.52, -1366.97, 0.000, 0.000, 0.000, 15:23:55.467
151, -1835.91, -1597.98, -1343.67, -1362.70, 0.000, 0.000, 0.000, 15:23:55.467
152, -1905.75, -1676.64, -1431.72, -1455.30, 0.000, 0.000, 0.000, 15:23:55.467
153, -1877.62, -1642.39, -1393.71, -1411.86, 0.000, 0.000, 0.000, 15:23:55.489
154, -1841.68, -1607.26, -1356.80, -1383.17, 0.000, 0.000, 0.000, 15:23:55.489
155, -1821.54, -1585.53, -1341.22, -1357.34, 0.000, 0.000, 0.000, 15:23:55.490
156, -1889.78, -1652.19, -1403.23, -1412.99, 0.000, 0.000, 0.000, 15:23:55.514
157, -1898.07, -1659.92, -1418.43, -1443.18, 0.000, 0.000, 0.000, 15:23:55.514
158, -1835.41, -1601.02, -1355.14, -1371.04, 0.000, 0.000, 0.000, 15:23:55.514
159, -1853.63, -1607.73, -1364.32, -1381.31, 0.000, 0.000, 0.000, 15:23:55.514
160, -1911.08, -1673.48, -1430.22, -1442.69, 0.000, 0.000, 0.000, 15:23:55.515
161, -1893.71, -1658.72, -1403.20, -1439.17, 0.000, 0.000, 0.000, 15:23:55.518
162, -1854.93, -1618.93, -1367.54, -1376.63, 0.000, 0.000, 0.000, 15:23:55.518
163, -1851.85, -1609.23, -1358.23, -1390.29, 0.000, 0.000, 0.000, 15:23:55.518
164, -1908.51, -1671.86, -1427.96, -1442.32, 0.000, 0.000, 0.000, 15:23:55.518
165, -1893.08, -1645.10, -1403.14, -1420.21, 0.000, 0.000, 0.000, 15:23:55.518
166, -1839.29, -1598.68, -1355.59, -1367.49, 0.000, 0.000, 0.000, 15:23:55.519
167, -1840.63, -1603.44, -1351.61, -1363.69, 0.000, 0.000, 0.000, 15:23:55.593
168, -1880.64, -1646.51, -1389.57, -1419.82, 0.000, 0.000, 0.000, 15:23:55.593
169, -1877.05, -1628.40, -1379.33, -1382.72, 0.000, 0.000, 0.000, 15:23:55.601
170, -1856.98, -1619.35, -1365.27, -1397.82, 0.000, 0.000, 0.000, 15:23:55.601
171, -1860.14, -1607.07, -1383.77, -1390.51, 0.000, 0.000, 0.000, 15:23:55.601
172, -1906.39, -1666.31, -1424.69, -1437.60, 0.000, 0.000, 0.000, 15:23:55.602
173, -1886.07, -1649.14, -1399.22, -1429.35, 0.000, 0.000, 0.000, 15:23:55.623
174, -1836.13, -1602.38, -1362.41, -1374.81, 0.000, 0.000, 0.000, 15:23:55.624
175, -1849.07, -1598.87, -1363.64, -1371.34, 0.000, 0.000, 0.000, 15:23:55.631
176, -1913.56, -1678.16, -1430.74, -1431.31, 0.000, 0.000, 0.000, 15:23:55.632
177, -1900.27, -1656.47, -1417.70, -1445.37, 0.000, 0.000, 0.000, 15:23:55.632
178, -1830.58, -1593.48, -1345.19, -1370.95, 0.000, 0.000, 0.000, 15:23:55.632
179, -1821.02, -1583.85, -1343.38, -1357.14, 0.000, 0.000, 0.000, 15:23:55.635
180, -1887.73, -1652.51, -1411.97, -1427.75, 0.000, 0.000, 0.000, 15:23:55.635
181, -1881.20, -1638.66, -1401.72, -1416.29, 0.000, 0.000, 0.000, 15:23:55.635
182, -1838.66, -1604.22, -1348.20, -1364.26, 0.000, 0.000, 0.000, 15:23:55.636
183, -1832.14, -1592.07, -1340.34, -1379.51, 0.000, 0.000, 0.000, 15:23:55.636
184, -1904.72, -1675.10, -1418.48, -1446.59, 0.000, 0.000, 0.000, 15:23:55.636
185, -1904.68, -1656.26, -1414.22, -1429.25, 0.000, 0.000, 0.000, 15:23:55.650
186, -1858.60, -1614.09, -1372.42, -1382.25, 0.000, 0.000, 0.000, 15:23:55.650
187, -1843.94, -1599.67, -1360.18, -1361.39, 0.000, 0.000, 0.000, 15:23:55.651
188, -1900.18, -1665.51, -1405.28, -1435.46, 0.000, 0.000, 0.000, 15:23:55.651
189, -1887.94, -1651.50, -1402.15, -1413.60, 0.000, 0.000, 0.000, 15:23:55.651
190, -1843.42, -1610.45, -1356.71, -1372.08, 0.000, 0.000, 0.000, 15:23:55.651
191, -1842.97, -1601.94, -1354.21, -1360.22, 0.000, 0.000, 0.000, 15:23:55.652
192, -1906.68, -1673.35, -1423.68, -1448.98, 0.000, 0.000, 0.000, 15:23:55.652
193, -1906.98, -1662.35, -1415.89, -1419.89, 0.000, 0.000, 0.000, 15:23:55.652
194, -1847.86, -1610.76, -1359.90, -1386.67, 0.000, 0.000, 0.000, 15:23:55.653
195, -1843.23, -1605.51, -1348.12, -1374.04, 0.000, 0.000, 0.000, 15:23:55.693
196, -1903.31, -1673.05, -1417.70, -1438.57, 0.000, 0.000, 0.000, 15:23:55.693
197, -1888.00, -1654.21, -1395.61, -1416.70, 0.000, 0.000, 0.000, 15:23:55.693
198, -1839.20, -1601.39, -1351.71, -1353.28, 0.000, 0.000, 0.000, 15:23:55.693
199, -1847.85, -1604.74, -1360.19, -1361.64, 0.000, 0.000, 0.000, 15:23:55.695
200, -1895.79, -1661.41, -1410.77, -1419.74, 0.000, 0.000, 0.000, 15:23:55.696
0, -1898.25, -1661.63, -1413.49, -1442.12, 0.000, 0.000, 0.000, 15:23:55.697
1, -1840.84, -1605.42, -1356.24, -1367.34, 0.000, 0.000, 0.000, 15:23:55.697
2, -1847.50, -1608.97, -1355.58, -1374.83, 0.000, 0.000, 0.000, 15:23:55.697
3, -1917.52, -1680.12, -1433.97, -1449.93, 0.000, 0.000, 0.000, 15:23:55.728
4, -1882.18, -1645.30, -1395.97, -1418.95, 0.000, 0.000, 0.000, 15:23:55.728
5, -1845.12, -1610.17, -1361.18, -1385.31, 0.000, 0.000, 0.000, 15:23:55.729
6, -1825.57, -1582.23, -1334.31, -1360.91, 0.000, 0.000, 0.000, 15:23:55.730
7, -1889.19, -1661.72, -1401.51, -1430.23, 0.000, 0.000, 0.000, 15:23:55.730
8, -1884.08, -1647.77, -1401.05, -1394.92, 0.000, 0.000, 0.000, 15:23:55.731
9, -1856.93, -1615.21, -1370.88, -1374.48, 0.000, 0.000, 0.000, 15:23:55.731
10, -1860.64, -1616.87, -1360.39, -1390.83, 0.000, 0.000, 0.000, 15:23:55.732
11, -1891.69, -1658.14, -1405.17, -1418.93, 0.000, 0.000, 0.000, 15:23:55.732
12, -1912.46, -1659.74, -1412.89, -1418.65, 0.000, 0.000, 0.000, 15:23:55.732
13, -1868.96, -1630.56, -1377.82, -1405.13, 0.000, 0.000, 0.000, 15:23:55.733
14, -1840.25, -1606.49, -1363.07, -1374.21, 0.000, 0.000, 0.000, 15:23:55.733
15, -1909.37, -1681.13, -1423.28, -1428.94, 0.000, 0.000, 0.000, 15:23:55.734
16, -1893.73, -1649.41, -1404.19, -1432.39, 0.000, 0.000, 0.000, 15:23:55.734
17, -1850.11, -1615.06, -1371.39, -1384.85, 0.000, 0.000, 0.000, 15:23:55.736
18, -1841.04, -1602.95, -1362.67, -1368.01, 0.000, 0.000, 0.000, 15:23:55.737
19, -1890.46, -1658.63, -1412.22, -1430.11, 0.000, 0.000, 0.000, 15:23:55.737
20, -1897.05, -1664.49, -1416.15, -1411.72, 0.000, 0.000, 0.000, 15:23:55.737
21, -1851.30, -1616.46, -1371.85, -1399.84, 0.000, 0.000, 0.000, 15:23:55.757
22, -1823.90, -1588.97, -1336.59, -1368.28, 0.000, 0.000, 0.000, 15:23:55.757
23, -1909.07, -1674.82, -1434.25, -1443.04, 0.000, 0.000, 0.000, 15:23:55.757
24, -1898.41, -1653.69, -1415.76, -1439.01, 0.000, 0.000, 0.000, 15:23:55.758
25, -1842.92, -1605.56, -1359.54, -1373.37, 0.000, 0.000, 0.000, 15:23:55.758
26, -1826.45, -1591.44, -1340.15, -1376.93, 0.000, 0.000, 0.000, 15:23:55.758
27, -1919.65, -1683.45, -1439.83, -1470.57, 0.000, 0.000, 0.000, 15:23:55.758
28, -1905.36, -1665.11, -1419.01, -1444.61, 0.000, 0.000, 0.000, 15:23:55.758
29, -1852.42, -1598.58, -1356.31, -1357.69, 0.000, 0.000, 0.000, 15:23:55.760
30, -1849.53, -1604.56, -1355.67, -1389.96, 0.000, 0.000, 0.000, 15:23:55.762
31, -1907.08, -1668.10, -1417.19, -1443.16, 0.000, 0.000, 0.000, 15:23:55.763
32, -1901.09, -1658.02, -1410.36, -1430.09, 0.000, 0.000, 0.000, 15:23:55.763
33, -1865.23, -1625.27, -1379.98, -1373.91, 0.000, 0.000, 0.000, 15:23:55.868
34, -1862.28, -1619.79, -1376.78, -1399.85, 0.000, 0.000, 0.000, 15:23:55.869
35, -1905.51, -1671.03, -1425.49, -1438.29, 0.000, 0.000, 0.000, 15:23:55.976
36, -1899.57, -1658.27, -1412.56, -1434.19, 0.000, 0.000, 0.000, 15:23:55.976
37, -1856.53, -1619.21, -1365.27, -1385.99, 0.000, 0.000, 0.000, 15:23:55.976
38, -1829.48, -1590.16, -1331.83, -1347.95, 0.000, 0.000, 0.000, 15:23:55.979
39, -1910.27, -1683.99, -1417.39, -1457.64, 0.000, 0.000, 0.000, 15:23:56.075
40, -1890.21, -1655.15, -1392.20, -1417.10, 0.000, 0.000, 0.000, 15:23:56.075
41, -1858.90, -1625.55, -1372.49, -1394.28, 0.000, 0.000, 0.000, 15:23:56.135
42, -1839.94, -1601.56, -1363.49, -1382.73, 0.000, 0.000, 0.000, 15:23:56.138
43, -1888.32, -1644.07, -1403.69, -1415.31, 0.000, 0.000, 0.000, 15:23:56.139
44, -1915.93, -1671.00, -1430.67, -1437.84, 0.000, 0.000, 0.000, 15:23:56.139
45, -1856.77, -1615.37, -1376.71, -1381.66, 0.000, 0.000, 0.000, 15:23:56.213
46, -1821.36, -1578.62, -1326.50, -1351.74, 0.000, 0.000, 0.000, 15:23:56.214
47, -1906.46, -1673.37, -1405.80, -1431.10, 0.000, 0.000, 0.000, 15:23:56.226
48, -1883.22, -1639.30, -1397.90, -1375.90, 0.000, 0.000, 0.000, 15:23:56.231
49, -1852.60, -1616.44, -1365.72, -1400.43, 0.000, 0.000, 0.000, 15:23:56.232
50, -1844.49, -1608.36, -1351.86, -1383.23, 0.000, 0.000, 0.000, 15:23:56.233
51, -1905.22, -1670.90, -1421.71, -1451.14, 0.000, 0.000, 0.000, 15:23:56.272
52, -1890.29, -1654.34, -1401.36, -1423.65, 0.000, 0.000, 0.000, 15:23:56.272
53, -1846.42, -1617.50, -1368.86, -1384.05, 0.000, 0.000, 0.000, 15:23:56.281
54, -1836.60, -1600.81, -1351.81, -1359.15, 0.000, 0.000, 0.000, 15:23:56.287
55, -1899.25, -1666.42, -1409.08, -1420.77, 0.000, 0.000, 0.000, 15:23:56.315
56, -1892.65, -1654.43, -1398.73, -1418.01, 0.000, 0.000, 0.000, 15:23:56.315
57, -1872.42, -1638.90, -1371.51, -1407.79, 0.000, 0.000, 0.000, 15:23:56.359
58, -1854.58, -1621.47, -1360.76, -1382.73, 0.000, 0.000, 0.000, 15:23:56.359
59, -1907.95, -1682.10, -1418.60, -1430.73, 0.000, 0.000, 0.000, 15:23:56.361
60, -1890.75, -1648.92, -1394.98, -1396.31, 0.000, 0.000, 0.000, 15:23:56.362
61, -1859.48, -1623.41, -1375.21, -1408.11, 0.000, 0.000, 0.000, 15:23:56.362
62, -1851.64, -1611.99, -1382.13, -1394.75, 0.000, 0.000, 0.000, 15:23:56.363
63, -1885.53, -1654.41, -1411.86, -1425.99, 0.000, 0.000, 0.000, 15:23:56.365
64, -1857.76, -1621.49, -1381.51, -1383.43, 0.000, 0.000, 0.000, 15:23:56.366
65, -1821.37, -1571.32, -1347.03, -1355.73, 0.000, 0.000, 0.000, 15:23:56.377
66, -1828.53, -1588.69, -1354.54, -1380.28, 0.000, 0.000, 0.000, 15:23:56.377
67, -1884.12, -1632.40, -1411.49, -1417.58, 0.000, 0.000, 0.000, 15:23:56.378
68, -1880.96, -1623.43, -1412.35, -1427.06, 0.000, 0.000, 0.000, 15:23:56.378
69, -1832.59, -1575.43, -1370.37, -1375.86, 0.000, 0.000, 0.000, 15:23:56.394
70, -1847.74, -1585.32, -1379.35, -1387.26, 0.000, 0.000, 0.000, 15:23:56.395
71, -1860.83, -1610.66, -1401.42, -1398.28, 0.000, 0.000, 0.000, 15:23:56.396
72, -1881.38, -1625.29, -1414.70, -1411.04, 0.000, 0.000, 0.000, 15:23:56.396
73, -1841.85, -1574.69, -1382.44, -1388.80, 0.000, 0.000, 0.000, 15:23:56.397
74, -1808.97, -1556.62, -1353.50, -1344.79, 0.000, 0.000, 0.000, 15:23:56.397
75, -1892.56, -1655.27, -1438.84, -1450.92, 0.000, 0.000, 0.000, 15:23:56.410
76, -1877.02, -1630.24, -1412.70, -1433.79, 0.000, 0.000, 0.000, 15:23:56.411
77, -1847.30, -1603.84, -1383.02, -1389.97, 0.000, 0.000, 0.000, 15:23:56.412
78, -1832.72, -1584.59, -1361.78, -1369.12, 0.000, 0.000, 0.000, 15:23:56.413
79, -1889.99, -1644.47, -1424.10, -1440.14, 0.000, 0.000, 0.000, 15:23:56.414
80, -1876.06, -1629.01, -1401.38, -1404.53, 0.000, 0.000, 0.000, 15:23:56.414
81, -1847.70, -1601.29, -1378.62, -1378.24, 0.000, 0.000, 0.000, 15:23:56.429
82, -1835.07, -1587.06, -1368.07, -1359.31, 0.000, 0.000, 0.000, 15:23:56.430
83, -1873.74, -1633.74, -1407.40, -1391.18, 0.000, 0.000, 0.000, 15:23:56.443
84, -1886.88, -1648.04, -1418.08, -1424.12, 0.000, 0.000, 0.000, 15:23:56.443
85, -1855.80, -1618.97, -1374.24, -1399.78, 0.000, 0.000, 0.000, 15:23:56.444
86, -1849.68, -1607.75, -1381.42, -1393.13, 0.000, 0.000, 0.000, 15:23:56.444
87, -1892.66, -1657.26, -1426.13, -1433.59, 0.000, 0.000, 0.000, 15:23:56.802
88, -1883.21, -1644.90, -1414.81, -1416.83, 0.000, 0.000, 0.000, 15:23:56.802
89, -1825.83, -1594.83, -1362.21, -1339.44, 0.000, 0.000, 0.000, 15:23:56.804
90, -1854.46, -1614.40, -1389.11, -1388.34, 0.000, 0.000, 0.000, 15:23:56.804
91, -1900.27, -1666.98, -1442.40, -1457.57, 0.000, 0.000, 0.000, 15:23:56.804
92, -1873.70, -1637.98, -1403.70, -1404.30, 0.000, 0.000, 0.000, 15:23:56.805
93, -1846.73, -1606.52, -1373.68, -1382.02, 0.000, 0.000, 0.000, 15:23:56.805
94, -1836.05, -1602.40, -1361.12, -1382.17, 0.000, 0.000, 0.000, 15:23:56.807
95, -1903.75, -1660.19, -1422.97, -1439.41, 0.000, 0.000, 0.000, 15:23:56.811
96, -1892.29, -1651.55, -1409.53, -1430.60, 0.000, 0.000, 0.000, 15:23:56.814
97, -1846.13, -1605.96, -1361.68, -1364.94, 0.000, 0.000, 0.000, 15:23:56.814
98, -1847.27, -1611.89, -1368.38, -1370.07, 0.000, 0.000, 0.000, 15:23:56.815
99, -1886.65, -1657.65, -1395.89, -1419.22, 0.000, 0.000, 0.000, 15:23:56.869
100, -1894.96, -1660.73, -1410.00, -1435.13, 0.000, 0.000, 0.000, 15:23:56.869
101, -1870.12, -1628.87, -1385.72, -1401.71, 0.000, 0.000, 0.000, 15:23:56.869
102, -1847.47, -1611.34, -1359.40, -1362.91, 0.000, 0.000, 0.000, 15:23:56.869
103, -1892.20, -1666.94, -1405.52, -1449.88, 0.000, 0.000, 0.000, 15:23:56.870
104, -1897.10, -1670.13, -1413.84, -1439.45, 0.000, 0.000, 0.000, 15:23:56.870
105, -1840.04, -1606.32, -1352.20, -1357.08, 0.000, 0.000, 0.000, 15:23:56.911
106, -1860.49, -1626.81, -1376.81, -1388.00, 0.000, 0.000, 0.000, 15:23:56.911
107, -1886.13, -1641.68, -1397.81, -1400.17, 0.000, 0.000, 0.000, 15:23:56.912
108, -1913.09, -1681.43, -1415.75, -1431.93, 0.000, 0.000, 0.000, 15:23:56.916
109, -1850.18, -1620.55, -1361.17, -1373.47, 0.000, 0.000, 0.000, 15:23:56.916
110, -1879.42, -1629.19, -1391.51, -1389.59, 0.000, 0.000, 0.000, 15:23:56.917
111, -1894.59, -1658.54, -1414.89, -1429.91, 0.000, 0.000, 0.000, 15:23:56.946
112, -1889.84, -1653.96, -1410.36, -1432.48, 0.000, 0.000, 0.000, 15:23:56.946
113, -1862.64, -1636.26, -1368.49, -1386.09, 0.000, 0.000, 0.000, 15:23:56.947
114, -1874.31, -1642.57, -1390.20, -1383.69, 0.000, 0.000, 0.000, 15:23:56.947
115, -1902.13, -1672.34, -1422.21, -1460.70, 0.000, 0.000, 0.000, 15:23:56.951
116, -1886.40, -1644.70, -1403.32, -1394.26, 0.000, 0.000, 0.000, 15:23:56.951
117, -1885.53, -1649.13, -1402.67, -1430.20, 0.000, 0.000, 0.000, 15:23:56.997
118, -1860.01, -1611.53, -1373.81, -1389.93, 0.000, 0.000, 0.000, 15:23:56.998
119, -1884.61, -1635.88, -1389.72, -1382.17, 0.000, 0.000, 0.000, 15:23:56.998
120, -1922.12, -1687.21, -1433.30, -1466.34, 0.000, 0.000, 0.000, 15:23:56.998
121, -1869.68, -1626.72, -1383.99, -1418.97, 0.000, 0.000, 0.000, 15:23:56.998
122, -1849.26, -1614.65, -1369.61, -1395.38, 0.000, 0.000, 0.000, 15:23:56.999
123, -1890.60, -1647.63, -1387.96, -1408.07, 0.000, 0.000, 0.000, 15:23:56.999
124, -1902.96, -1657.03, -1418.72, -1429.43, 0.000, 0.000, 0.000, 15:23:57.000
125, -1869.16, -1637.84, -1387.07, -1411.65, 0.000, 0.000, 0.000, 15:23:57.000
126, -1846.37, -1608.56, -1356.76, -1385.30, 0.000, 0.000, 0.000, 15:23:57.000
127, -1880.33, -1643.35, -1397.89, -1417.90, 0.000, 0.000, 0.000, 15:23:57.001
128, -1895.72, -1647.81, -1400.16, -1420.14, 0.000, 0.000, 0.000, 15:23:57.001
129, -1867.75, -1632.64, -1381.29, -1400.82, 0.000, 0.000, 0.000, 15:23:57.001
130, -1830.21, -1590.84, -1345.30, -1362.03, 0.000, 0.000, 0.000, 15:23:57.002
131, -1909.06, -1675.09, -1434.24, -1449.51, 0.000, 0.000, 0.000, 15:23:57.002
132, -1908.96, -1666.62, -1429.67, -1429.55, 0.000, 0.000, 0.000, 15:23:57.002
133, -1863.73, -1628.95, -1382.70, -1391.95, 0.000, 0.000, 0.000, 15:23:57.002
134, -1864.76, -1620.68, -1382.87, -1404.82, 0.000, 0.000, 0.000, 15:23:57.002
135, -1888.35, -1655.07, -1408.91, -1419.67, 0.000, 0.000, 0.000, 15:23:57.011
136, -1883.74, -1635.73, -1408.13, -1417.88, 0.000, 0.000, 0.000, 15:23:57.020
137, -1872.39, -1633.86, -1391.86, -1431.66, 0.000, 0.000, 0.000, 15:23:57.020
138, -1853.88, -1606.53, -1382.27, -1374.80, 0.000, 0.000, 0.000, 15:23:57.026
139, -1890.77, -1661.27, -1416.95, -1453.39, 0.000, 0.000, 0.000, 15:23:57.027
140, -1912.72, -1671.14, -1446.90, -1463.57, 0.000, 0.000, 0.000, 15:23:57.027
141, -1842.61, -1597.43, -1364.89, -1367.00, 0.000, 0.000, 0.000, 15:23:57.034
142, -1868.41, -1620.01, -1391.72, -1426.48, 0.000, 0.000, 0.000, 15:23:57.034
143, -1895.88, -1658.08, -1418.37, -1437.69, 0.000, 0.000, 0.000, 15:23:57.034
144, -1868.85, -1635.09, -1390.56, -1420.32, 0.000, 0.000, 0.000, 15:23:57.034
145, -1843.45, -1601.08, -1364.31, -1386.33, 0.000, 0.000, 0.000, 15:23:57.038
146, -1840.29, -1597.53, -1361.25, -1359.65, 0.000, 0.000, 0.000, 15:23:57.038
147, -1896.51, -1651.46, -1407.47, -1441.88, 0.000, 0.000, 0.000, 15:23:57.092
148, -1894.25, -1649.61, -1404.22, -1426.81, 0.000, 0.000, 0.000, 15:23:57.092
149, -1865.16, -1620.95, -1382.62, -1385.05, 0.000, 0.000, 0.000, 15:23:57.093
150, -1856.08, -1616.38, -1370.44, -1390.07, 0.000, 0.000, 0.000, 15:23:57.093
151, -1892.93, -1655.96, -1406.09, -1437.63, 0.000, 0.000, 0.000, 15:23:57.093
152, -1905.90, -1661.21, -1428.09, -1442.75, 0.000, 0.000, 0.000, 15:23:57.094
153, -1849.23, -1613.38, -1368.02, -1366.17, 0.000, 0.000, 0.000, 15:23:57.095
154, -1863.21, -1621.25, -1375.11, -1408.41, 0.000, 0.000, 0.000, 15:23:57.095
155, -1909.08, -1681.13, -1426.02, -1466.38, 0.000, 0.000, 0.000, 15:23:57.095
156, -1879.80, -1643.25, -1398.36, -1418.19, 0.000, 0.000, 0.000, 15:23:57.095
157, -1866.82, -1636.25, -1390.71, -1426.20, 0.000, 0.000, 0.000, 15:23:57.096
158, -1836.80, -1604.33, -1356.14, -1357.74, 0.000, 0.000, 0.000, 15:23:57.096
159, -1890.81, -1664.56, -1407.57, -1440.64, 0.000, 0.000, 0.000, 15:23:57.098
160, -1886.06, -1651.41, -1405.49, -1409.03, 0.000, 0.000, 0.000, 15:23:57.099
161, -1865.55, -1630.66, -1384.82, -1407.22, 0.000, 0.000, 0.000, 15:23:57.099
162, -1852.91, -1609.94, -1366.16, -1379.85, 0.000, 0.000, 0.000, 15:23:57.099
163, -1870.83, -1637.45, -1395.17, -1399.28, 0.000, 0.000, 0.000, 15:23:57.099
164, -1912.51, -1665.90, -1425.59, -1467.92, 0.000, 0.000, 0.000, 15:23:57.100
165, -1849.33, -1604.43, -1373.27, -1389.40, 0.000, 0.000, 0.000, 15:23:57.100
166, -1848.32, -1589.05, -1372.20, -1354.09, 0.000, 0.000, 0.000, 15:23:57.100
167, -1910.17, -1673.53, -1418.70, -1461.89, 0.000, 0.000, 0.000, 15:23:57.103
168, -1904.36, -1656.51, -1423.37, -1426.95, 0.000, 0.000, 0.000, 15:23:57.103
169, -1852.66, -1613.12, -1370.80, -1383.93, 0.000, 0.000, 0.000, 15:23:57.103
170, -1853.31, -1616.22, -1371.19, -1373.42, 0.000, 0.000, 0.000, 15:23:57.104
171, -1893.75, -1654.03, -1408.76, -1432.28, 0.000, 0.000, 0.000, 15:23:57.106
172, -1892.78, -1645.20, -1400.73, -1432.71, 0.000, 0.000, 0.000, 15:23:57.106
173, -1879.61, -1625.99, -1387.97, -1396.53, 0.000, 0.000, 0.000, 15:23:57.124
174, -1871.09, -1623.27, -1379.28, -1409.36, 0.000, 0.000, 0.000, 15:23:57.148
175, -1897.79, -1653.00, -1413.58, -1434.80, 0.000, 0.000, 0.000, 15:23:57.155
176, -1885.33, -1634.10, -1383.98, -1407.36, 0.000, 0.000, 0.000, 15:23:57.156
177, -1858.12, -1618.09, -1383.29, -1368.92, 0.000, 0.000, 0.000, 15:23:57.207
178, -1855.35, -1620.38, -1376.51, -1390.18, 0.000, 0.000, 0.000, 15:23:57.207
179, -1902.40, -1651.03, -1418.30, -1416.99, 0.000, 0.000, 0.000, 15:23:57.210
180, -1893.43, -1643.23, -1419.18, -1437.30, 0.000, 0.000, 0.000, 15:23:57.210
181, -1868.91, -1625.04, -1387.47, -1417.66, 0.000, 0.000, 0.000, 15:23:57.212
182, -1851.18, -1603.52, -1372.16, -1395.01, 0.000, 0.000, 0.000, 15:23:57.222
183, -1888.83, -1646.65, -1414.96, -1412.72, 0.000, 0.000, 0.000, 15:23:57.245
184, -1910.35, -1666.30, -1417.01, -1455.37, 0.000, 0.000, 0.000, 15:23:57.246
185, -1875.48, -1634.72, -1389.27, -1415.01, 0.000, 0.000, 0.000, 15:23:57.247
186, -1858.16, -1614.77, -1383.83, -1395.40, 0.000, 0.000, 0.000, 15:23:57.247
187, -1904.05, -1663.31, -1425.77, -1431.93, 0.000, 0.000, 0.000, 15:23:57.247
188, -1907.69, -1668.19, -1429.97, -1456.78, 0.000, 0.000, 0.000, 15:23:57.247
189, -1863.73, -1631.11, -1377.65, -1399.79, 0.000, 0.000, 0.000, 15:23:57.248
190, -1852.18, -1614.81, -1371.00, -1398.15, 0.000, 0.000, 0.000, 15:23:57.248
191, -1886.07, -1653.05, -1408.86, -1418.20, 0.000, 0.000, 0.000, 15:23:57.250
192, -1884.72, -1654.84, -1396.49, -1446.87, 0.000, 0.000, 0.000, 15:23:57.250
193, -1849.30, -1616.57, -1363.07, -1345.46, 0.000, 0.000, 0.000, 15:23:57.250
194, -1892.65, -1655.10, -1410.93, -1461.82, 0.000, 0.000, 0.000, 15:23:57.251
195, -1902.37, -1669.29, -1425.77, -1448.17, 0.000, 0.000, 0.000, 15:23:57.251
196, -1893.22, -1659.19, -1409.73, -1432.90, 0.000, 0.000, 0.000, 15:23:57.251
197, -1863.07, -1630.68, -1380.38, -1407.46, 0.000, 0.000, 0.000, 15:23:57.327
198, -1863.07, -1618.46, -1379.21, -1383.04, 0.000, 0.000, 0.000, 15:23:57.327
199, -1885.88, -1653.88, -1400.43, -1437.10, 0.000, 0.000, 0.000, 15:23:57.327
200, -1894.24, -1646.48, -1394.28, -1421.82, 0.000, 0.000, 0.000, 15:23:57.327
0, -1851.04, -1621.25, -1349.62, -1385.16, 0.000, 0.000, 0.000, 15:23:57.328
1, -1871.82, -1626.73, -1389.56, -1397.20, 0.000, 0.000, 0.000, 15:23:57.328
2, -1905.32, -1659.74, -1416.35, -1454.38, 0.000, 0.000, 0.000, 15:23:57.328
3, -1881.37, -1661.01, -1393.87, -1395.94, 0.000, 0.000, 0.000, 15:23:57.328
4, -1866.43, -1634.03, -1373.50, -1414.96, 0.000, 0.000, 0.000, 15:23:57.348
5, -1845.46, -1606.99, -1357.65, -1389.42, 0.000, 0.000, 0.000, 15:23:57.349
6, -1903.15, -1668.89, -1420.10, -1449.45, 0.000, 0.000, 0.000, 15:23:57.349
7, -1891.64, -1650.73, -1408.61, -1433.69, 0.000, 0.000, 0.000, 15:23:57.378
8, -1861.70, -1626.40, -1373.33, -1405.52, 0.000, 0.000, 0.000, 15:23:57.378
9, -1837.77, -1597.34, -1344.14, -1367.34, 0.000, 0.000, 0.000, 15:23:57.451
10, -1892.13, -1655.29, -1411.75, -1442.53, 0.000, 0.000, 0.000, 15:23:57.452
11, -1885.90, -1655.82, -1375.51, -1431.14, 0.000, 0.000, 0.000, 15:23:57.452
12, -1852.40, -1606.50, -1378.51, -1372.80, 0.000, 0.000, 0.000, 15:23:57.452
13, -1867.08, -1626.70, -1389.86, -1410.85, 0.000, 0.000, 0.000, 15:23:57.456
14, -1900.97, -1664.23, -1415.77, -1450.19, 0.000, 0.000, 0.000, 15:23:57.456
15, -1871.21, -1633.98, -1382.88, -1377.49, 0.000, 0.000, 0.000, 15:23:57.477
16, -1868.68, -1637.00, -1382.33, -1424.26, 0.000, 0.000, 0.000, 15:23:57.478
17, -1821.43, -1584.47, -1331.11, -1362.65, 0.000, 0.000, 0.000, 15:23:57.478
18, -1882.76, -1655.75, -1410.12, -1439.27, 0.000, 0.000, 0.000, 15:23:57.478
19, -1849.59, -1620.79, -1360.28, -1394.53, 0.000, 0.000, 0.000, 15:23:57.495
20, -1830.27, -1624.74, -1351.51, -1401.30, 0.000, 0.000, 0.000, 15:23:57.495
21, -1829.22, -1618.79, -1335.04, -1393.75, 0.000, 0.000, 0.000, 15:23:57.496
22, -1903.99, -1684.59, -1438.64, -1474.71, 0.000, 0.000, 0.000, 15:23:57.496
23, -1835.12, -1618.66, -1351.05, -1387.10, 0.000, 0.000, 0.000, 15:23:57.496
24, -1861.08, -1638.22, -1381.01, -1434.25, 0.000, 0.000, 0.000, 15:23:57.497
25, -1835.68, -1607.18, -1343.45, -1372.44, 0.000, 0.000, 0.000, 15:23:57.497
26, -1870.19, -1646.63, -1378.86, -1400.24, 0.000, 0.000, 0.000, 15:23:57.497
27, -1898.16, -1675.53, -1375.60, -1461.12, 0.000, 0.000, 0.000, 15:23:57.497
28, -1866.63, -1641.69, -1401.91, -1415.20, 0.000, 0.000, 0.000, 15:23:57.498
29, -1839.44, -1607.44, -1344.65, -1376.01, 0.000, 0.000, 0.000, 15:23:57.498
30, -1880.76, -1657.25, -1392.62, -1431.82, 0.000, 0.000, 0.000, 15:23:57.498
31, -1868.26, -1635.31, -1362.32, -1407.92, 0.000, 0.000, 0.000, 15:23:57.499
32, -1840.49, -1611.70, -1337.07, -1367.07, 0.000, 0.000, 0.000, 15:23:57.501
33, -1845.79, -1623.02, -1360.17, -1403.00, 0.000, 0.000, 0.000, 15:23:57.515
34, -1871.10, -1631.75, -1388.80, -1361.54, 0.000, 0.000, 0.000, 15:23:57.516
35, -1912.71, -1685.88, -1415.08, -1493.76, 0.000, 0.000, 0.000, 15:23:57.516
36, -1871.06, -1640.71, -1378.20, -1404.06, 0.000, 0.000, 0.000, 15:23:57.517
37, -1854.76, -1628.70, -1369.12, -1400.32, 0.000, 0.000, 0.000, 15:23:57.519
38, -1898.57, -1670.73, -1400.10, -1450.60, 0.000, 0.000, 0.000, 15:23:57.519
39, -1897.00, -1662.38, -1408.72, -1444.48, 0.000, 0.000, 0.000, 15:23:57.520
40, -1855.77, -1617.70, -1371.95, -1399.44, 0.000, 0.000, 0.000, 15:23:57.520
41, -1870.64, -1630.60, -1377.76, -1409.38, 0.000, 0.000, 0.000, 15:23:57.520
42, -1899.58, -1662.28, -1420.18, -1435.09, 0.000, 0.000, 0.000, 15:23:57.521
43, -1865.10, -1642.27, -1341.38, -1405.61, 0.000, 0.000, 0.000, 15:23:57.521
44, -1886.82, -1646.99, -1407.96, -1416.12, 0.000, 0.000, 0.000, 15:23:57.521
45, -1852.34, -1615.64, -1375.70, -1399.29, 0.000, 0.000, 0.000, 15:23:57.522
46, -1895.76, -1657.85, -1410.24, -1442.61, 0.000, 0.000, 0.000, 15:23:57.522
47, -1896.95, -1652.91, -1384.66, -1423.72, 0.000, 0.000, 0.000, 15:23:57.522
48, -1884.37, -1629.67, -1397.44, -1389.37, 0.000, 0.000, 0.000, 15:23:57.522
49, -1850.85, -1606.16, -1373.02, -1370.91, 0.000, 0.000, 0.000, 15:23:57.523
50, -1907.39, -1658.71, -1422.37, -1441.77, 0.000, 0.000, 0.000, 15:23:57.523
51, -1890.90, -1651.79, -1394.92, -1423.18, 0.000, 0.000, 0.000, 15:23:57.523
52, -1870.42, -1627.55, -1359.01, -1424.99, 0.000, 0.000, 0.000, 15:23:57.524
53, -1895.14, -1621.13, -1421.62, -1409.97, 0.000, 0.000, 0.000, 15:23:57.524
54, -1895.96, -1655.55, -1384.10, -1428.03, 0.000, 0.000, 0.000, 15:23:57.524
55, -1888.08, -1636.82, -1408.11, -1422.44, 0.000, 0.000, 0.000, 15:23:57.524
56, -1880.49, -1632.84, -1405.61, -1414.82, 0.000, 0.000, 0.000, 15:23:57.525
57, -1838.99, -1587.91, -1345.28, -1348.67, 0.000, 0.000, 0.000, 15:23:57.525
58, -1884.83, -1649.97, -1390.78, -1436.32, 0.000, 0.000, 0.000, 15:23:57.525
59, -1889.17, -1644.15, -1396.65, -1390.06, 0.000, 0.000, 0.000, 15:23:57.525
60, -1858.87, -1627.73, -1370.46, -1432.75, 0.000, 0.000, 0.000, 15:23:57.525
61, -1858.96, -1609.07, -1382.30, -1378.98, 0.000, 0.000, 0.000, 15:23:57.526
62, -1891.75, -1654.41, -1405.75, -1432.65, 0.000, 0.000, 0.000, 15:23:57.526
63, -1905.85, -1647.18, -1416.14, -1429.26, 0.000, 0.000, 0.000, 15:23:57.527
64, -1869.50, -1627.29, -1346.63, -1404.61, 0.000, 0.000, 0.000, 15:23:57.527
65, -1868.21, -1622.94, -1384.63, -1397.23, 0.000, 0.000, 0.000, 15:23:57.527
66, -1900.13, -1662.24, -1424.88, -1412.06, 0.000, 0.000, 0.000, 15:23:57.527
67, -1897.73, -1657.58, -1413.25, -1433.51, 0.000, 0.000, 0.000, 15:23:57.528
68, -1875.15, -1636.87, -1391.93, -1432.33, 0.000, 0.000, 0.000, 15:23:57.528
69, -1846.65, -1609.51, -1357.62, -1387.45, 0.000, 0.000, 0.000, 15:23:57.548
70, -1900.04, -1663.51, -1391.69, -1437.41, 0.000, 0.000, 0.000, 15:23:57.548
71, -1878.46, -1644.34, -1382.67, -1418.50, 0.000, 0.000, 0.000, 15:23:57.548
72, -1880.47, -1633.57, -1409.00, -1409.35, 0.000, 0.000, 0.000, 15:23:57.548
73, -1844.72, -1593.84, -1356.16, -1384.38, 0.000, 0.000, 0.000, 15:23:57.656
74, -1890.80, -1668.02, -1402.57, -1450.10, 0.000, 0.000, 0.000, 15:23:57.656
75, -1873.43, -1639.89, -1395.29, -1421.81, 0.000, 0.000, 0.000, 15:23:57.657
76, -1855.37, -1615.51, -1373.97, -1398.61, 0.000, 0.000, 0.000, 15:23:57.657
77, -1852.61, -1617.93, -1357.64, -1391.04, 0.000, 0.000, 0.000, 15:23:57.657
78, -1877.75, -1643.01, -1353.79, -1414.62, 0.000, 0.000, 0.000, 15:23:57.658
79, -1909.49, -1672.14, -1437.32, -1446.11, 0.000, 0.000, 0.000, 15:23:57.685
80, -1886.56, -1643.13, -1384.54, -1414.89, 0.000, 0.000, 0.000, 15:23:57.686
81, -1887.37, -1636.13, -1407.96, -1420.12, 0.000, 0.000, 0.000, 15:23:57.687
82, -1905.16, -1661.47, -1418.32, -1445.33, 0.000, 0.000, 0.000, 15:23:57.687
83, -1909.50, -1657.85, -1420.97, -1422.38, 0.000, 0.000, 0.000, 15:23:57.687
84, -1874.36, -1623.14, -1335.12, -1373.58, 0.000, 0.000, 0.000, 15:23:57.687
85, -1873.85, -1630.47, -1385.57, -1426.42, 0.000, 0.000, 0.000, 15:23:57.688
86, -1941.95, -1685.08, -1480.34, -1478.85, 0.000, 0.000, 0.000, 15:23:57.688
87, -1916.95, -1657.65, -1415.05, -1440.88, 0.000, 0.000, 0.000, 15:23:57.689
88, -1879.64, -1635.21, -1390.88, -1414.15, 0.000, 0.000, 0.000, 15:23:57.689
89, -1892.91, -1635.73, -1400.23, -1406.47, 0.000, 0.000, 0.000, 15:23:57.689
90, -1938.12, -1688.69, -1456.64, -1467.04, 0.000, 0.000, 0.000, 15:23:57.690
91, -1903.82, -1649.65, -1415.11, -1421.33, 0.000, 0.000, 0.000, 15:23:57.690
92, -1880.22, -1622.41, -1383.09, -1372.99, 0.000, 0.000, 0.000, 15:23:57.690
93, -1904.24, -1645.55, -1414.76, -1434.74, 0.000, 0.000, 0.000, 15:23:57.700
94, -1927.53, -1669.46, -1428.64, -1413.00, 0.000, 0.000, 0.000, 15:23:57.701
95, -1930.99, -1664.10, -1435.27, -1442.18, 0.000, 0.000, 0.000, 15:23:57.701
96, -1890.18, -1637.05, -1354.39, -1408.64, 0.000, 0.000, 0.000, 15:23:57.701
97, -1886.24, -1613.03, -1434.83, -1393.06, 0.000, 0.000, 0.000, 15:23:57.701
98, -1898.84, -1642.91, -1408.46, -1434.23, 0.000, 0.000, 0.000, 15:23:57.702
99, -1897.25, -1647.78, -1410.68, -1430.45, 0.000, 0.000, 0.000, 15:23:57.703
100, -1897.14, -1635.19, -1418.06, -1411.91, 0.000, 0.000, 0.000, 15:23:57.703
101, -1854.08, -1600.89, -1367.09, -1378.11, 0.000, 0.000, 0.000, 15:23:57.703
102, -1903.83, -1658.86, -1414.58, -1442.34, 0.000, 0.000, 0.000, 15:23:57.704
103, -1907.96, -1660.04, -1417.63, -1422.68, 0.000, 0.000, 0.000, 15:23:57.704
104, -1868.94, -1623.69, -1377.00, -1372.84, 0.000, 0.000, 0.000, 15:23:57.704
105, -1850.11, -1613.51, -1354.74, -1410.71, 0.000, 0.000, 0.000, 15:23:57.705
106, -1926.80, -1667.46, -1464.56, -1426.16, 0.000, 0.000, 0.000, 15:23:57.705
107, -1899.40, -1653.13, -1409.94, -1446.60, 0.000, 0.000, 0.000, 15:23:57.706
108, -1877.60, -1631.45, -1373.52, -1401.87, 0.000, 0.000, 0.000, 15:23:57.706
109, -1889.24, -1631.21, -1409.03, -1390.12, 0.000, 0.000, 0.000, 15:23:57.706
110, -1909.71, -1662.97, -1407.25, -1461.53, 0.000, 0.000, 0.000, 15:23:57.706
111, -1890.94, -1644.52, -1400.20, -1425.15, 0.000, 0.000, 0.000, 15:23:57.707
112, -1875.33, -1628.36, -1396.87, -1402.60, 0.000, 0.000, 0.000, 15:23:57.707
113, -1850.94, -1610.24, -1379.04, -1382.81, 0.000, 0.000, 0.000, 15:23:57.708
114, -1918.58, -1673.25, -1441.12, -1446.07, 0.000, 0.000, 0.000, 15:23:57.708
115, -1897.08, -1664.29, -1399.34, -1437.47, 0.000, 0.000, 0.000, 15:23:57.708
116, -1870.98, -1629.81, -1388.36, -1386.65, 0.000, 0.000, 0.000, 15:23:57.708
117, -1861.17, -1622.12, -1384.62, -1412.75, 0.000, 0.000, 0.000, 15:23:57.708
118, -1883.18, -1652.47, -1403.60, -1421.47, 0.000, 0.000, 0.000, 15:23:57.708
119, -1907.70, -1664.79, -1431.56, -1440.66, 0.000, 0.000, 0.000, 15:23:57.710
120, -1876.43, -1647.12, -1368.22, -1423.26, 0.000, 0.000, 0.000, 15:23:57.710
121, -1856.74, -1601.63, -1372.59, -1369.76, 0.000, 0.000, 0.000, 15:23:57.710
122, -1897.93, -1665.97, -1429.66, -1445.43, 0.000, 0.000, 0.000, 15:23:57.710
123, -1904.52, -1676.91, -1435.06, -1457.65, 0.000, 0.000, 0.000, 15:23:57.711
124, -1869.24, -1640.00, -1372.30, -1411.57, 0.000, 0.000, 0.000, 15:23:57.711
125, -1864.23, -1620.48, -1378.61, -1406.18, 0.000, 0.000, 0.000, 15:23:57.711
126, -1887.45, -1658.23, -1364.97, -1421.60, 0.000, 0.000, 0.000, 15:23:57.711
127, -1894.44, -1652.84, -1418.14, -1414.43, 0.000, 0.000, 0.000, 15:23:57.711
128, -1859.08, -1640.03, -1372.02, -1431.19, 0.000, 0.000, 0.000, 15:23:57.711
129, -1870.59, -1620.27, -1379.67, -1399.29, 0.000, 0.000, 0.000, 15:23:57.712
130, -1908.20, -1675.22, -1423.49, -1451.37, 0.000, 0.000, 0.000, 15:23:57.712
131, -1907.48, -1667.89, -1421.54, -1429.50, 0.000, 0.000, 0.000, 15:23:57.712
132, -1860.73, -1636.48, -1342.68, -1412.72, 0.000, 0.000, 0.000, 15:23:57.712
133, -1853.97, -1607.72, -1389.07, -1363.97, 0.000, 0.000, 0.000, 15:23:57.713
134, -1914.08, -1671.15, -1445.90, -1417.30, 0.000, 0.000, 0.000, 15:23:57.713
135, -1907.50, -1673.97, -1403.99, -1444.71, 0.000, 0.000, 0.000, 15:23:57.713
136, -1877.06, -1636.54, -1406.54, -1405.78, 0.000, 0.000, 0.000, 15:23:57.713
137, -1861.92, -1641.31, -1377.28, -1400.15, 0.000, 0.000, 0.000, 15:23:57.714
138, -1903.05, -1675.48, -1410.26, -1417.08, 0.000, 0.000, 0.000, 15:23:57.714
139, -1905.46, -1666.46, -1408.53, -1442.65, 0.000, 0.000, 0.000, 15:23:57.714
140, -1874.60, -1655.67, -1384.19, -1417.48, 0.000, 0.000, 0.000, 15:23:57.714
141, -1868.12, -1632.95, -1392.48, -1395.28, 0.000, 0.000, 0.000, 15:23:57.714
142, -1903.80, -1671.79, -1439.50, -1414.60, 0.000, 0.000, 0.000, 15:23:57.714
143, -1889.78, -1665.99, -1407.46, -1453.00, 0.000, 0.000, 0.000, 15:23:57.715
144, -1894.45, -1659.07, -1407.05, -1427.67, 0.000, 0.000, 0.000, 15:23:57.715
145, -1866.43, -1621.33, -1405.81, -1369.07, 0.000, 0.000, 0.000, 15:23:57.716
146, -1889.54, -1667.17, -1419.14, -1443.85, 0.000, 0.000, 0.000, 15:23:57.717
147, -1906.40, -1661.93, -1428.37, -1450.39, 0.000, 0.000, 0.000, 15:23:57.717
148, -1864.85, -1636.19, -1402.08, -1382.45, 0.000, 0.000, 0.000, 15:23:57.717
149, -1854.90, -1634.51, -1363.57, -1405.07, 0.000, 0.000, 0.000, 15:23:57.745
150, -1900.48, -1678.78, -1426.52, -1458.25, 0.000, 0.000, 0.000, 15:23:57.745
151, -1882.69, -1647.89, -1405.02, -1415.33, 0.000, 0.000, 0.000, 15:23:57.745
152, -1852.26, -1631.32, -1390.86, -1417.36, 0.000, 0.000, 0.000, 15:23:57.745
153, -1876.32, -1634.78, -1370.39, -1398.37, 0.000, 0.000, 0.000, 15:23:57.745
154, -1904.48, -1667.78, -1451.14, -1442.72, 0.000, 0.000, 0.000, 15:23:57.746
155, -1892.29, -1655.18, -1404.66, -1412.40, 0.000, 0.000, 0.000, 15:23:57.746
156, -1888.13, -1656.75, -1428.91, -1436.37, 0.000, 0.000, 0.000, 15:23:57.746
157, -1837.04, -1618.19, -1364.96, -1397.14, 0.000, 0.000, 0.000, 15:23:57.746
158, -1904.86, -1673.69, -1451.07, -1437.17, 0.000, 0.000, 0.000, 15:23:57.747
159, -1888.52, -1675.02, -1417.86, -1428.07, 0.000, 0.000, 0.000, 15:23:57.747
160, -1886.48, -1663.58, -1403.26, -1434.93, 0.000, 0.000, 0.000, 15:23:57.747
161, -1873.38, -1642.75, -1387.31, -1406.57, 0.000, 0.000, 0.000, 15:23:57.747
162, -1911.26, -1679.42, -1433.75, -1441.44, 0.000, 0.000, 0.000, 15:23:57.747
163, -1900.18, -1668.04, -1418.53, -1419.59, 0.000, 0.000, 0.000, 15:23:57.747
164, -1858.03, -1625.69, -1376.23, -1364.72, 0.000, 0.000, 0.000, 15:23:57.748
165, -1880.71, -1662.43, -1405.65, -1456.60, 0.000, 0.000, 0.000, 15:23:57.748
166, -1911.26, -1679.04, -1446.54, -1444.59, 0.000, 0.000, 0.000, 15:23:57.748
167, -1906.23, -1674.35, -1432.62, -1442.76, 0.000, 0.000, 0.000, 15:23:57.748
168, -1881.54, -1647.03, -1417.30, -1407.33, 0.000, 0.000, 0.000, 15:23:57.748
169, -1863.04, -1631.03, -1374.04, -1398.94, 0.000, 0.000, 0.000, 15:23:57.749
170, -1929.23, -1696.33, -1482.76, -1460.86, 0.000, 0.000, 0.000, 15:23:57.749
171, -1909.42, -1679.65, -1442.57, -1447.43, 0.000, 0.000, 0.000, 15:23:57.749
172, -1850.90, -1626.04, -1375.00, -1390.36, 0.000, 0.000, 0.000, 15:23:57.749
173, -1856.23, -1624.81, -1371.60, -1396.42, 0.000, 0.000, 0.000, 15:23:57.750
174, -1896.92, -1685.44, -1443.96, -1462.68, 0.000, 0.000, 0.000, 15:23:57.750
175, -1922.59, -1688.72, -1453.22, -1455.76, 0.000, 0.000, 0.000, 15:23:57.750
176, -1891.83, -1665.06, -1403.57, -1434.45, 0.000, 0.000, 0.000, 15:23:57.750
177, -1864.36, -1634.97, -1398.61, -1387.42, 0.000, 0.000, 0.000, 15:23:57.750
178, -1913.03, -1695.21, -1443.46, -1469.73, 0.000, 0.000, 0.000, 15:23:57.750
179, -1899.00, -1679.02, -1429.93, -1422.34, 0.000, 0.000, 0.000, 15:23:57.755
180, -1893.75, -1677.46, -1398.40, -1456.71, 0.000, 0.000, 0.000, 15:23:57.756
181, -1831.04, -1616.09, -1358.47, -1373.23, 0.000, 0.000, 0.000, 15:23:57.756
182, -1898.04, -1692.20, -1438.16, -1460.37, 0.000, 0.000, 0.000, 15:23:57.756
183, -1921.20, -1694.15, -1480.98, -1462.38, 0.000, 0.000, 0.000, 15:23:57.756
184, -1897.38, -1669.88, -1440.36, -1444.25, 0.000, 0.000, 0.000, 15:23:57.756
185, -1854.68, -1630.53, -1378.40, -1394.79, 0.000, 0.000, 0.000, 15:23:57.757
186, -1882.70, -1663.21, -1426.82, -1411.61, 0.000, 0.000, 0.000, 15:23:57.757
187, -1908.02, -1688.26, -1446.53, -1460.87, 0.000, 0.000, 0.000, 15:23:57.757
188, -1865.48, -1650.50, -1381.69, -1419.37, 0.000, 0.000, 0.000, 15:23:57.757
189, -1872.00, -1636.89, -1428.36, -1413.86, 0.000, 0.000, 0.000, 15:23:57.757
190, -1895.13, -1674.63, -1445.46, -1445.03, 0.000, 0.000, 0.000, 15:23:57.757
191, -1890.96, -1676.34, -1431.24, -1442.88, 0.000, 0.000, 0.000, 15:23:57.758
192, -1866.41, -1639.48, -1414.02, -1394.73, 0.000, 0.000, 0.000, 15:23:57.758
193, -1868.26, -1648.71, -1403.92, -1427.92, 0.000, 0.000, 0.000, 15:23:57.758
194, -1918.48, -1692.77, -1452.27, -1465.98, 0.000, 0.000, 0.000, 15:23:57.758
195, -1903.41, -1681.53, -1442.87, -1442.05, 0.000, 0.000, 0.000, 15:23:57.758
196, -1869.57, -1647.24, -1399.88, -1406.13, 0.000, 0.000, 0.000, 15:23:57.759
197, -1864.28, -1638.57, -1404.98, -1375.99, 0.000, 0.000, 0.000, 15:23:57.761
198, -1913.45, -1700.11, -1444.62, -1477.33, 0.000, 0.000, 0.000, 15:23:57.761
199, -1916.71, -1692.56, -1468.41, -1459.36, 0.000, 0.000, 0.000, 15:23:57.762
200, -1885.40, -1658.25, -1432.07, -1426.47, 0.000, 0.000, 0.000, 15:23:57.762
0, -1868.46, -1648.32, -1415.17, -1422.09, 0.000, 0.000, 0.000, 15:23:57.762
1, -1898.89, -1679.51, -1444.44, -1451.41, 0.000, 0.000, 0.000, 15:23:57.762
2, -1885.52, -1664.32, -1433.92, -1443.99, 0.000, 0.000, 0.000, 15:23:57.763
3, -1879.32, -1667.36, -1417.08, -1428.84, 0.000, 0.000, 0.000, 15:23:57.763
4, -1842.53, -1628.62, -1374.23, -1397.05, 0.000, 0.000, 0.000, 15:23:57.763
5, -1915.56, -1705.55, -1466.86, -1493.04, 0.000, 0.000, 0.000, 15:23:57.763
6, -1899.86, -1685.93, -1444.47, -1468.27, 0.000, 0.000, 0.000, 15:23:57.763
7, -1872.70, -1657.19, -1414.31, -1433.63, 0.000, 0.000, 0.000, 15:23:57.763
8, -1853.81, -1635.65, -1382.76, -1416.98, 0.000, 0.000, 0.000, 15:23:57.764
9, -1892.91, -1684.01, -1420.31, -1441.73, 0.000, 0.000, 0.000, 15:23:57.764
10, -1916.56, -1701.12, -1463.96, -1476.71, 0.000, 0.000, 0.000, 15:23:57.764
11, -1880.73, -1672.95, -1414.91, -1446.66, 0.000, 0.000, 0.000, 15:23:57.764
12, -1856.69, -1645.39, -1396.05, -1411.60, 0.000, 0.000, 0.000, 15:23:57.764
13, -1919.69, -1705.61, -1448.97, -1466.55, 0.000, 0.000, 0.000, 15:23:57.765
14, -1926.37, -1710.19, -1470.50, -1499.69, 0.000, 0.000, 0.000, 15:23:57.765
15, -1865.23, -1650.48, -1406.68, -1424.27, 0.000, 0.000, 0.000, 15:23:57.765
16, -1876.67, -1656.34, -1422.15, -1429.96, 0.000, 0.000, 0.000, 15:23:57.765
17, -1902.21, -1692.91, -1458.96, -1476.31, 0.000, 0.000, 0.000, 15:23:57.765
18, -1919.35, -1694.61, -1461.73, -1470.91, 0.000, 0.000, 0.000, 15:23:57.766
19, -1886.11, -1659.92, -1429.89, -1440.03, 0.000, 0.000, 0.000, 15:23:57.766
20, -1856.56, -1640.25, -1368.95, -1406.52, 0.000, 0.000, 0.000, 15:23:57.766
21, -1909.99, -1697.46, -1482.06, -1457.82, 0.000, 0.000, 0.000, 15:23:57.766
22, -1923.78, -1696.33, -1472.18, -1477.70, 0.000, 0.000, 0.000, 15:23:57.766
23, -1899.17, -1678.32, -1444.19, -1443.63, 0.000, 0.000, 0.000, 15:23:57.767
24, -1885.24, -1662.44, -1425.58, -1454.24, 0.000, 0.000, 0.000, 15:23:57.767
25, -1887.32, -1668.03, -1421.27, -1456.70, 0.000, 0.000, 0.000, 15:23:57.767
26, -1883.57, -1673.08, -1430.10, -1436.01, 0.000, 0.000, 0.000, 15:23:57.767
27, -1885.80, -1670.81, -1421.87, -1449.53, 0.000, 0.000, 0.000, 15:23:57.767
28, -1878.83, -1662.82, -1430.78, -1436.43, 0.000, 0.000, 0.000, 15:23:57.767
29, -1920.15, -1698.86, -1457.96, -1477.29, 0.000, 0.000, 0.000, 15:23:57.768
30, -1921.57, -1709.22, -1454.86, -1482.95, 0.000, 0.000, 0.000, 15:23:57.768
31, -1883.82, -1669.65, -1410.85, -1439.10, 0.000, 0.000, 0.000, 15:23:57.768
32, -1853.36, -1648.36, -1381.29, -1393.19, 0.000, 0.000, 0.000, 15:23:57.768
33, -1909.98, -1702.96, -1450.66, -1474.74, 0.000, 0.000, 0.000, 15:23:57.768
34, -1913.48, -1700.63, -1439.87, -1469.82, 0.000, 0.000, 0.000, 15:23:57.769
35, -1876.03, -1666.34, -1415.46, -1410.17, 0.000, 0.000, 0.000, 15:23:57.769
36, -1897.66, -1681.25, -1415.07, -1469.32, 0.000, 0.000, 0.000, 15:23:57.769
37, -1914.16, -1705.87, -1442.75, -1464.69, 0.000, 0.000, 0.000, 15:23:57.769
38, -1929.17, -1706.64, -1468.07, -1461.14, 0.000, 0.000, 0.000, 15:23:57.770
39, -1895.01, -1675.96, -1424.94, -1460.73, 0.000, 0.000, 0.000, 15:23:57.770
40, -1880.13, -1657.52, -1414.41, -1437.19, 0.000, 0.000, 0.000, 15:23:57.770
41, -1892.33, -1683.19, -1428.98, -1463.14, 0.000, 0.000, 0.000, 15:23:57.772
42, -1929.29, -1713.00, -1456.23, -1497.81, 0.000, 0.000, 0.000, 15:23:57.772
43, -1861.16, -1644.82, -1381.06, -1410.10, 0.000, 0.000, 0.000, 15:23:57.772
44, -1885.91, -1656.95, -1413.36, -1447.90, 0.000, 0.000, 0.000, 15:23:57.773
45, -1901.29, -1696.23, -1426.34, -1476.42, 0.000, 0.000, 0.000, 15:23:57.773
46, -1884.34, -1676.15, -1409.82, -1431.42, 0.000, 0.000, 0.000, 15:23:57.773
47, -1891.59, -1671.69, -1408.98, -1427.72, 0.000, 0.000, 0.000, 15:23:57.773
48, -1874.89, -1651.78, -1409.46, -1454.32, 0.000, 0.000, 0.000, 15:23:57.773
49, -1915.19, -1692.07, -1449.43, -1466.97, 0.000, 0.000, 0.000, 15:23:57.774
50, -1938.21, -1699.70, -1461.40, -1487.90, 0.000, 0.000, 0.000, 15:23:57.774
51, -1909.14, -1680.73, -1427.48, -1481.01, 0.000, 0.000, 0.000, 15:23:57.774
52, -1870.74, -1634.90, -1392.46, -1411.34, 0.000, 0.000, 0.000, 15:23:57.774
53, -1904.96, -1672.59, -1411.71, -1457.85, 0.000, 0.000, 0.000, 15:23:57.774
54, -1929.54, -1698.87, -1460.03, -1485.02, 0.000, 0.000, 0.000, 15:23:57.775
55, -1884.84, -1656.09, -1384.28, -1452.16, 0.000, 0.000, 0.000, 15:23:57.775
56, -1882.01, -1648.17, -1411.77, -1434.64, 0.000, 0.000, 0.000, 15:23:57.775
57, -1905.45, -1683.22, -1418.79, -1459.08, 0.000, 0.000, 0.000, 15:23:57.775
58, -1920.10, -1676.11, -1450.56, -1453.97, 0.000, 0.000, 0.000, 15:23:57.775
59, -1904.24, -1662.43, -1416.67, -1480.36, 0.000, 0.000, 0.000, 15:23:57.775
60, -1896.20, -1651.80, -1408.27, -1463.97, 0.000, 0.000, 0.000, 15:23:57.776
61, -1922.25, -1677.58, -1452.33, -1491.98, 0.000, 0.000, 0.000, 15:23:57.776
62, -1933.26, -1688.59, -1453.75, -1492.00, 0.000, 0.000, 0.000, 15:23:57.776
63, -1881.97, -1623.77, -1411.55, -1434.38, 0.000, 0.000, 0.000, 15:23:57.776
64, -1873.80, -1644.08, -1394.93, -1419.59, 0.000, 0.000, 0.000, 15:23:57.776
65, -1921.12, -1685.73, -1446.74, -1490.54, 0.000, 0.000, 0.000, 15:23:57.777
66, -1930.77, -1680.42, -1453.63, -1492.57, 0.000, 0.000, 0.000, 15:23:57.777
67, -1907.32, -1665.47, -1428.60, -1466.53, 0.000, 0.000, 0.000, 15:23:57.784
68, -1836.42, -1588.85, -1344.30, -1348.07, 0.000, 0.000, 0.000, 15:23:57.784
69, -1955.86, -1709.00, -1481.68, -1519.06, 0.000, 0.000, 0.000, 15:23:57.799
70, -1936.93, -1693.74, -1452.82, -1501.98, 0.000, 0.000, 0.000, 15:23:57.799
71, -1897.50, -1663.35, -1414.06, -1465.58, 0.000, 0.000, 0.000, 15:23:57.799
72, -1873.56, -1636.12, -1346.60, -1430.47, 0.000, 0.000, 0.000, 15:23:57.799
73, -1925.16, -1686.68, -1466.55, -1503.32, 0.000, 0.000, 0.000, 15:23:57.822
74, -1914.48, -1672.87, -1433.94, -1477.43, 0.000, 0.000, 0.000, 15:23:57.822
75, -1901.74, -1668.36, -1417.47, -1457.15, 0.000, 0.000, 0.000, 15:23:57.833
76, -1879.51, -1629.91, -1388.40, -1435.15, 0.000, 0.000, 0.000, 15:23:57.833
77, -1904.47, -1687.33, -1414.47, -1497.42, 0.000, 0.000, 0.000, 15:23:57.833
78, -1904.59, -1671.26, -1422.25, -1462.30, 0.000, 0.000, 0.000, 15:23:57.833
79, -1895.44, -1660.23, -1416.82, -1479.02, 0.000, 0.000, 0.000, 15:23:57.845
80, -1875.21, -1634.30, -1386.97, -1417.20, 0.000, 0.000, 0.000, 15:23:57.846
81, -1912.86, -1679.81, -1428.10, -1485.93, 0.000, 0.000, 0.000, 15:23:57.870
82, -1927.72, -1686.88, -1444.83, -1496.01, 0.000, 0.000, 0.000, 15:23:57.870
83, -1897.60, -1666.15, -1415.37, -1463.05, 0.000, 0.000, 0.000, 15:23:57.870
84, -1880.29, -1632.85, -1378.95, -1426.50, 0.000, 0.000, 0.000, 15:23:57.870
85, -1911.91, -1680.86, -1428.51, -1456.74, 0.000, 0.000, 0.000, 15:23:57.906
86, -1929.00, -1690.25, -1437.59, -1480.13, 0.000, 0.000, 0.000, 15:23:57.906
87, -1912.04, -1668.35, -1434.85, -1482.85, 0.000, 0.000, 0.000, 15:23:57.906
88, -1860.18, -1615.25, -1373.41, -1410.64, 0.000, 0.000, 0.000, 15:23:57.906
89, -1921.69, -1675.99, -1430.33, -1494.59, 0.000, 0.000, 0.000, 15:23:57.906
90, -1918.80, -1661.09, -1431.17, -1471.22, 0.000, 0.000, 0.000, 15:23:57.906
91, -1903.54, -1655.77, -1406.14, -1444.14, 0.000, 0.000, 0.000, 15:23:57.907
92, -1860.02, -1614.79, -1366.16, -1400.12, 0.000, 0.000, 0.000, 15:23:57.907
93, -1927.99, -1683.41, -1439.59, -1516.51, 0.000, 0.000, 0.000, 15:23:57.919
94, -1929.34, -1678.32, -1433.06, -1482.56, 0.000, 0.000, 0.000, 15:23:57.919
95, -1899.63, -1648.64, -1400.22, -1462.47, 0.000, 0.000, 0.000, 15:23:57.920
96, -1871.83, -1638.12, -1383.83, -1436.79, 0.000, 0.000, 0.000, 15:23:57.924
97, -1900.80, -1659.14, -1410.42, -1437.82, 0.000, 0.000, 0.000, 15:23:57.944
98, -1930.45, -1699.71, -1415.04, -1517.91, 0.000, 0.000, 0.000, 15:23:57.944
99, -1904.40, -1673.89, -1430.63, -1475.23, 0.000, 0.000, 0.000, 15:23:57.954
100, -1862.76, -1625.75, -1365.80, -1413.58, 0.000, 0.000, 0.000, 15:23:57.954
101, -1931.88, -1685.86, -1457.50, -1509.74, 0.000, 0.000, 0.000, 15:23:57.954
102, -1934.20, -1686.44, -1457.50, -1495.76, 0.000, 0.000, 0.000, 15:23:57.955
103, -1885.20, -1650.49, -1405.00, -1460.27, 0.000, 0.000, 0.000, 15:23:57.964
104, -1867.87, -1613.51, -1396.73, -1408.84, 0.000, 0.000, 0.000, 15:23:57.964
105, -1901.99, -1654.48, -1425.44, -1448.73, 0.000, 0.000, 0.000, 15:23:58.008
106, -1925.63, -1691.60, -1445.80, -1513.92, 0.000, 0.000, 0.000, 15:23:58.009
107, -1879.01, -1632.13, -1396.92, -1433.11, 0.000, 0.000, 0.000, 15:23:58.009
108, -1880.54, -1634.36, -1388.27, -1437.18, 0.000, 0.000, 0.000, 15:23:58.009
109, -1926.53, -1679.01, -1425.65, -1489.02, 0.000, 0.000, 0.000, 15:23:58.009
110, -1935.77, -1682.34, -1457.21, -1487.96, 0.000, 0.000, 0.000, 15:23:58.009
111, -1887.76, -1637.25, -1400.64, -1434.84, 0.000, 0.000, 0.000, 15:23:58.010
112, -1871.69, -1619.41, -1373.12, -1418.71, 0.000, 0.000, 0.000, 15:23:58.010
113, -1928.41, -1682.61, -1445.37, -1481.93, 0.000, 0.000, 0.000, 15:23:58.010
114, -1927.87, -1684.61, -1445.08, -1505.53, 0.000, 0.000, 0.000, 15:23:58.010
115, -1885.40, -1643.07, -1397.90, -1447.67, 0.000, 0.000, 0.000, 15:23:58.027
116, -1849.08, -1601.61, -1354.46, -1410.16, 0.000, 0.000, 0.000, 15:23:58.028
117, -1917.22, -1674.37, -1437.27, -1483.47, 0.000, 0.000, 0.000, 15:23:58.056
118, -1922.80, -1680.37, -1431.94, -1493.83, 0.000, 0.000, 0.000, 15:23:58.056
119, -1884.75, -1637.85, -1392.69, -1439.06, 0.000, 0.000, 0.000, 15:23:58.057
120, -1835.11, -1606.75, -1338.94, -1396.51, 0.000, 0.000, 0.000, 15:23:58.057
121, -1927.85, -1686.45, -1442.67, -1488.81, 0.000, 0.000, 0.000, 15:23:58.058
122, -1926.88, -1678.32, -1433.11, -1496.28, 0.000, 0.000, 0.000, 15:23:58.058
123, -1872.07, -1628.28, -1346.47, -1446.52, 0.000, 0.000, 0.000, 15:23:58.058
124, -1871.46, -1617.57, -1404.07, -1433.97, 0.000, 0.000, 0.000, 15:23:58.061
125, -1897.17, -1656.20, -1391.54, -1466.43, 0.000, 0.000, 0.000, 15:23:58.069
126, -1926.06, -1673.65, -1454.22, -1494.28, 0.000, 0.000, 0.000, 15:23:58.069
127, -1890.73, -1641.09, -1396.43, -1445.85, 0.000, 0.000, 0.000, 15:23:58.088
128, -1870.52, -1618.88, -1380.93, -1424.11, 0.000, 0.000, 0.000, 15:23:58.088
129, -1903.60, -1649.58, -1413.04, -1453.23, 0.000, 0.000, 0.000, 15:23:58.103
130, -1907.57, -1676.68, -1402.37, -1497.12, 0.000, 0.000, 0.000, 15:23:58.104
131, -1893.61, -1635.13, -1405.21, -1466.52, 0.000, 0.000, 0.000, 15:23:58.114
132, -1836.38, -1591.12, -1334.69, -1411.31, 0.000, 0.000, 0.000, 15:23:58.114
133, -1898.19, -1650.45, -1375.77, -1453.64, 0.000, 0.000, 0.000, 15:23:58.114
134, -1926.58, -1677.57, -1456.07, -1494.17, 0.000, 0.000, 0.000, 15:23:58.114
135, -1876.77, -1618.87, -1391.59, -1433.37, 0.000, 0.000, 0.000, 15:23:58.138
136, -1851.87, -1592.92, -1360.25, -1432.51, 0.000, 0.000, 0.000, 15:23:58.139
137, -1915.63, -1667.06, -1437.09, -1484.93, 0.000, 0.000, 0.000, 15:23:58.141
138, -1901.28, -1647.17, -1399.62, -1447.31, 0.000, 0.000, 0.000, 15:23:58.142
139, -1886.99, -1643.92, -1385.95, -1462.90, 0.000, 0.000, 0.000, 15:23:58.143
140, -1859.20, -1602.10, -1338.92, -1372.87, 0.000, 0.000, 0.000, 15:23:58.144
141, -1931.25, -1672.16, -1450.95, -1505.35, 0.000, 0.000, 0.000, 15:23:58.160
142, -1924.23, -1669.95, -1441.20, -1487.00, 0.000, 0.000, 0.000, 15:23:58.160
143, -1874.20, -1629.60, -1380.02, -1445.46, 0.000, 0.000, 0.000, 15:23:58.160
144, -1867.09, -1610.00, -1370.89, -1425.38, 0.000, 0.000, 0.000, 15:23:58.160
145, -1912.42, -1652.39, -1439.13, -1472.34, 0.000, 0.000, 0.000, 15:23:58.174
146, -1905.94, -1646.78, -1425.09, -1436.82, 0.000, 0.000, 0.000, 15:23:58.174
147, -1882.65, -1636.20, -1378.87, -1472.39, 0.000, 0.000, 0.000, 15:23:58.189
148, -1824.59, -1585.37, -1337.82, -1390.51, 0.000, 0.000, 0.000, 15:23:58.189
149, -1913.04, -1669.29, -1418.43, -1506.87, 0.000, 0.000, 0.000, 15:23:58.189
150, -1957.74, -1679.32, -1458.13, -1491.92, 0.000, 0.000, 0.000, 15:23:58.189
151, -1886.12, -1620.30, -1376.95, -1443.27, 0.000, 0.000, 0.000, 15:23:58.205
152, -1851.78, -1588.52, -1361.45, -1383.25, 0.000, 0.000, 0.000, 15:23:58.205
153, -1906.99, -1673.41, -1430.65, -1493.13, 0.000, 0.000, 0.000, 15:23:58.219
154, -1897.05, -1656.75, -1411.72, -1472.87, 0.000, 0.000, 0.000, 15:23:58.219
155, -1876.46, -1622.19, -1372.32, -1423.75, 0.000, 0.000, 0.000, 15:23:58.220
156, -1885.38, -1616.60, -1395.29, -1425.30, 0.000, 0.000, 0.000, 15:23:58.220
157, -1909.59, -1660.59, -1430.06, -1454.52, 0.000, 0.000, 0.000, 15:23:58.264
158, -1902.28, -1660.63, -1416.66, -1451.46, 0.000, 0.000, 0.000, 15:23:58.264
159, -1893.74, -1639.64, -1416.77, -1456.33, 0.000, 0.000, 0.000, 15:23:58.264
160, -1846.50, -1603.74, -1355.44, -1410.30, 0.000, 0.000, 0.000, 15:23:58.264
161, -1900.80, -1670.81, -1390.15, -1494.46, 0.000, 0.000, 0.000, 15:23:58.265
162, -1917.45, -1651.01, -1439.61, -1478.53, 0.000, 0.000, 0.000, 15:23:58.265
163, -1902.43, -1650.11, -1410.96, -1490.79, 0.000, 0.000, 0.000, 15:23:58.266
164, -1866.00, -1598.42, -1364.66, -1408.63, 0.000, 0.000, 0.000, 15:23:58.266
165, -1903.04, -1653.51, -1414.46, -1491.55, 0.000, 0.000, 0.000, 15:23:58.266
166, -1896.91, -1650.04, -1419.82, -1469.32, 0.000, 0.000, 0.000, 15:23:58.266
167, -1883.20, -1641.72, -1391.25, -1474.69, 0.000, 0.000, 0.000, 15:23:58.294
168, -1876.57, -1623.83, -1374.08, -1429.92, 0.000, 0.000, 0.000, 15:23:58.294
169, -1902.02, -1654.49, -1412.31, -1470.07, 0.000, 0.000, 0.000, 15:23:58.294
170, -1910.92, -1655.85, -1408.32, -1478.69, 0.000, 0.000, 0.000, 15:23:58.294
171, -1894.69, -1643.57, -1402.98, -1427.83, 0.000, 0.000, 0.000, 15:23:58.309
172, -1896.13, -1624.44, -1406.93, -1460.02, 0.000, 0.000, 0.000, 15:23:58.309
173, -1905.11, -1644.28, -1411.44, -1461.15, 0.000, 0.000, 0.000, 15:23:58.324
174, -1894.21, -1636.32, -1383.11, -1458.20, 0.000, 0.000, 0.000, 15:23:58.324
175, -1910.05, -1647.28, -1431.18, -1465.99, 0.000, 0.000, 0.000, 15:23:58.324
176, -1859.21, -1615.48, -1375.97, -1449.81, 0.000, 0.000, 0.000, 15:23:58.327
177, -1888.20, -1630.09, -1365.61, -1465.02, 0.000, 0.000, 0.000, 15:23:58.339
178, -1935.51, -1654.67, -1480.56, -1483.05, 0.000, 0.000, 0.000, 15:23:58.339
179, -1882.56, -1627.63, -1381.69, -1447.41, 0.000, 0.000, 0.000, 15:23:58.340
180, -1872.93, -1616.34, -1378.93, -1442.95, 0.000, 0.000, 0.000, 15:23:58.340
181, -1917.91, -1656.60, -1442.21, -1470.89, 0.000, 0.000, 0.000, 15:23:58.354
182, -1906.54, -1645.57, -1415.87, -1458.78, 0.000, 0.000, 0.000, 15:23:58.354
183, -1879.30, -1617.39, -1388.77, -1418.43, 0.000, 0.000, 0.000, 15:23:58.369
184, -1868.92, -1599.17, -1394.47, -1429.64, 0.000, 0.000, 0.000, 15:23:58.369
185, -1895.60, -1633.10, -1414.58, -1457.22, 0.000, 0.000, 0.000, 15:23:58.369
186, -1912.00, -1646.23, -1424.51, -1467.90, 0.000, 0.000, 0.000, 15:23:58.369
187, -1877.22, -1618.65, -1382.90, -1433.98, 0.000, 0.000, 0.000, 15:23:58.388
188, -1842.54, -1586.73, -1341.69, -1395.18, 0.000, 0.000, 0.000, 15:23:58.388
189, -1893.82, -1634.93, -1399.94, -1466.19, 0.000, 0.000, 0.000, 15:23:58.404
190, -1919.70, -1660.94, -1419.34, -1502.83, 0.000, 0.000, 0.000, 15:23:58.404
191, -1883.80, -1620.49, -1392.37, -1450.61, 0.000, 0.000, 0.000, 15:23:58.405
192, -1840.17, -1584.99, -1350.64, -1414.16, 0.000, 0.000, 0.000, 15:23:58.405
193, -1929.32, -1665.49, -1413.94, -1494.22, 0.000, 0.000, 0.000, 15:23:58.414
194, -1906.66, -1634.63, -1438.85, -1451.92, 0.000, 0.000, 0.000, 15:23:58.414
195, -1882.34, -1620.78, -1403.84, -1466.58, 0.000, 0.000, 0.000, 15:23:58.439
196, -1863.75, -1592.34, -1373.48, -1427.59, 0.000, 0.000, 0.000, 15:23:58.440
197, -1896.03, -1648.78, -1393.41, -1482.16, 0.000, 0.000, 0.000, 15:23:58.443
198, -1902.31, -1632.33, -1382.14, -1453.34, 0.000, 0.000, 0.000, 15:23:58.443
199, -1878.35, -1621.79, -1410.51, -1445.12, 0.000, 0.000, 0.000, 15:23:58.443
200, -1861.57, -1593.23, -1366.37, -1431.62, 0.000, 0.000, 0.000, 15:23:58.444
0, -1908.98, -1645.73, -1437.01, -1499.20, 0.000, 0.000, 0.000, 15:23:58.444
1, -1906.70, -1648.86, -1393.71, -1498.88, 0.000, 0.000, 0.000, 15:23:58.461
2, -1878.68, -1619.26, -1385.04, -1446.86, 0.000, 0.000, 0.000, 15:23:58.462
3, -1852.87, -1590.79, -1381.81, -1419.30, 0.000, 0.000, 0.000, 15:23:58.474
4, -1905.10, -1644.79, -1414.47, -1486.49, 0.000, 0.000, 0.000, 15:23:58.474
5, -1911.65, -1658.21, -1418.98, -1501.92, 0.000, 0.000, 0.000, 15:23:58.480
6, -1894.24, -1630.25, -1382.06, -1452.91, 0.000, 0.000, 0.000, 15:23:58.480
7, -1879.15, -1625.56, -1397.74, -1464.73, 0.000, 0.000, 0.000, 15:23:58.489
8, -1898.94, -1638.68, -1388.01, -1455.40, 0.000, 0.000, 0.000, 15:23:58.490
9, -1915.58, -1668.20, -1422.49, -1501.15, 0.000, 0.000, 0.000, 15:23:58.505
10, -1885.92, -1636.28, -1418.32, -1480.39, 0.000, 0.000, 0.000, 15:23:58.506
11, -1842.77, -1578.62, -1333.91, -1378.27, 0.000, 0.000, 0.000, 15:23:58.506
12, -1918.97, -1647.11, -1438.01, -1484.32, 0.000, 0.000, 0.000, 15:23:58.506
13, -1916.12, -1657.14, -1438.68, -1483.22, 0.000, 0.000, 0.000, 15:23:58.519
14, -1886.24, -1629.61, -1392.59, -1458.07, 0.000, 0.000, 0.000, 15:23:58.520
15, -1882.05, -1625.95, -1378.69, -1465.45, 0.000, 0.000, 0.000, 15:23:58.539
16, -1876.30, -1630.00, -1392.72, -1447.31, 0.000, 0.000, 0.000, 15:23:58.539
17, -1934.52, -1667.90, -1460.96, -1515.79, 0.000, 0.000, 0.000, 15:23:58.540
18, -1879.21, -1618.61, -1382.02, -1441.51, 0.000, 0.000, 0.000, 15:23:58.540
19, -1880.34, -1615.12, -1402.13, -1460.97, 0.000, 0.000, 0.000, 15:23:58.549
20, -1894.49, -1656.04, -1385.78, -1492.14, 0.000, 0.000, 0.000, 15:23:58.549
21, -1905.09, -1654.74, -1415.48, -1464.84, 0.000, 0.000, 0.000, 15:23:58.564
22, -1882.23, -1636.56, -1408.83, -1446.28, 0.000, 0.000, 0.000, 15:23:58.565
23, -1860.83, -1610.44, -1375.21, -1443.15, 0.000, 0.000, 0.000, 15:23:58.565
24, -1901.42, -1656.76, -1409.13, -1500.03, 0.000, 0.000, 0.000, 15:23:58.565
25, -1895.13, -1663.24, -1385.60, -1488.60, 0.000, 0.000, 0.000, 15:23:58.579
26, -1876.96, -1618.82, -1410.72, -1428.89, 0.000, 0.000, 0.000, 15:23:58.579
27, -1892.69, -1623.10, -1405.26, -1457.67, 0.000, 0.000, 0.000, 15:23:58.609
28, -1895.81, -1639.81, -1421.69, -1452.66, 0.000, 0.000, 0.000, 15:23:58.609
29, -1879.57, -1635.83, -1388.27, -1441.28, 0.000, 0.000, 0.000, 15:23:58.610
30, -1870.45, -1627.17, -1399.51, -1456.50, 0.000, 0.000, 0.000, 15:23:58.610
31, -1853.68, -1609.10, -1371.84, -1435.16, 0.000, 0.000, 0.000, 15:23:58.610
32, -1868.34, -1633.45, -1390.49, -1393.29, 0.000, 0.000, 0.000, 15:23:58.610
33, -1908.45, -1680.21, -1429.27, -1558.22, 0.000, 0.000, 0.000, 15:23:58.610
34, -1867.72, -1622.50, -1390.59, -1461.70, 0.000, 0.000, 0.000, 15:23:58.610
35, -1847.33, -1602.00, -1356.52, -1419.69, 0.000, 0.000, 0.000, 15:23:58.624
36, -1878.97, -1643.29, -1399.48, -1466.42, 0.000, 0.000, 0.000, 15:23:58.624
37, -1873.79, -1646.08, -1396.96, -1445.30, 0.000, 0.000, 0.000, 15:23:58.639
38, -1897.38, -1649.69, -1431.45, -1491.33, 0.000, 0.000, 0.000, 15:23:58.639
39, -1854.90, -1600.67, -1373.68, -1416.19, 0.000, 0.000, 0.000, 15:23:58.654
40, -1896.52, -1647.01, -1434.10, -1467.66, 0.000, 0.000, 0.000, 15:23:58.654
41, -1907.67, -1676.80, -1424.31, -1506.40, 0.000, 0.000, 0.000, 15:23:58.656
42, -1867.76, -1615.93, -1387.45, -1408.46, 0.000, 0.000, 0.000, 15:23:58.656
43, -1878.22, -1618.07, -1392.81, -1415.02, 0.000, 0.000, 0.000, 15:23:58.670
44, -1884.17, -1640.85, -1396.74, -1484.06, 0.000, 0.000, 0.000, 15:23:58.670
45, -1905.25, -1646.07, -1460.67, -1458.14, 0.000, 0.000, 0.000, 15:23:58.689
46, -1890.58, -1639.39, -1428.27, -1481.00, 0.000, 0.000, 0.000, 15:23:58.689
47, -1861.39, -1614.70, -1391.29, -1443.12, 0.000, 0.000, 0.000, 15:23:58.690
48, -1876.16, -1638.81, -1402.15, -1466.34, 0.000, 0.000, 0.000, 15:23:58.690
49, -1901.70, -1655.93, -1442.04, -1470.52, 0.000, 0.000, 0.000, 15:23:58.705
50, -1893.13, -1640.94, -1408.84, -1457.04, 0.000, 0.000, 0.000, 15:23:58.705
51, -1863.92, -1619.99, -1390.38, -1422.92, 0.000, 0.000, 0.000, 15:23:58.729
52, -1878.13, -1648.77, -1407.47, -1466.16, 0.000, 0.000, 0.000, 15:23:58.729
53, -1878.02, -1634.19, -1427.50, -1411.87, 0.000, 0.000, 0.000, 15:23:58.729
54, -1853.45, -1638.62, -1370.69, -1469.08, 0.000, 0.000, 0.000, 15:23:58.729
55, -1874.08, -1626.58, -1428.36, -1446.82, 0.000, 0.000, 0.000, 15:23:58.730
56, -1869.97, -1639.82, -1399.77, -1444.34, 0.000, 0.000, 0.000, 15:23:58.730
57, -1888.04, -1655.46, -1421.13, -1466.94, 0.000, 0.000, 0.000, 15:23:58.730
58, -1899.49, -1653.71, -1439.75, -1478.35, 0.000, 0.000, 0.000, 15:23:58.730
59, -1863.83, -1621.89, -1397.50, -1424.26, 0.000, 0.000, 0.000, 15:23:58.744
60, -1874.77, -1621.95, -1405.34, -1433.57, 0.000, 0.000, 0.000, 15:23:58.744
61, -1900.46, -1689.51, -1424.75, -1499.85, 0.000, 0.000, 0.000, 15:23:58.760
62, -1878.12, -1644.59, -1409.13, -1447.69, 0.000, 0.000, 0.000, 15:23:58.761
63, -1852.21, -1605.82, -1371.85, -1393.26, 0.000, 0.000, 0.000, 15:23:58.791
64, -1898.49, -1665.28, -1438.84, -1513.70, 0.000, 0.000, 0.000, 15:23:58.791
65, -1903.11, -1650.57, -1434.60, -1470.47, 0.000, 0.000, 0.000, 15:23:58.791
66, -1876.19, -1644.98, -1398.48, -1458.32, 0.000, 0.000, 0.000, 15:23:58.791
67, -1856.04, -1610.89, -1386.57, -1430.68, 0.000, 0.000, 0.000, 15:23:58.791
68, -1890.73, -1648.99, -1429.48, -1449.41, 0.000, 0.000, 0.000, 15:23:58.791
69, -1888.04, -1643.89, -1408.63, -1459.30, 0.000, 0.000, 0.000, 15:23:58.842
70, -1893.17, -1654.49, -1407.77, -1466.85, 0.000, 0.000, 0.000, 15:23:58.842
71, -1863.78, -1611.43, -1403.72, -1419.60, 0.000, 0.000, 0.000, 15:23:58.842
72, -1866.13, -1647.39, -1371.28, -1445.36, 0.000, 0.000, 0.000, 15:23:58.843
73, -1901.71, -1652.91, -1423.48, -1430.66, 0.000, 0.000, 0.000, 15:23:58.843
74, -1911.56, -1662.24, -1464.74, -1502.87, 0.000, 0.000, 0.000, 15:23:58.843
75, -1862.22, -1621.23, -1392.56, -1445.54, 0.000, 0.000, 0.000, 15:23:58.845
76, -1886.72, -1635.36, -1424.57, -1439.46, 0.000, 0.000, 0.000, 15:23:58.846
77, -1904.32, -1667.30, -1418.38, -1493.10, 0.000, 0.000, 0.000, 15:23:58.849
78, -1870.94, -1620.01, -1414.26, -1436.05, 0.000, 0.000, 0.000, 15:23:58.849
79, -1874.96, -1622.90, -1389.02, -1432.82, 0.000, 0.000, 0.000, 15:23:58.849
80, -1884.43, -1628.97, -1412.54, -1435.28, 0.000, 0.000, 0.000, 15:23:58.849
81, -1895.04, -1673.61, -1412.70, -1496.38, 0.000, 0.000, 0.000, 15:23:58.873
82, -1878.65, -1639.37, -1427.11, -1465.84, 0.000, 0.000, 0.000, 15:23:58.873
83, -1852.63, -1610.98, -1396.00, -1414.96, 0.000, 0.000, 0.000, 15:23:58.873
84, -1891.00, -1656.33, -1425.98, -1454.98, 0.000, 0.000, 0.000, 15:23:58.873
85, -1889.00, -1652.74, -1395.18, -1453.92, 0.000, 0.000, 0.000, 15:23:58.879
86, -1892.36, -1644.03, -1427.72, -1464.14, 0.000, 0.000, 0.000, 15:23:58.879
87, -1864.53, -1624.74, -1387.17, -1458.98, 0.000, 0.000, 0.000, 15:23:58.896
88, -1902.87, -1657.23, -1454.15, -1457.49, 0.000, 0.000, 0.000, 15:23:58.896
89, -1899.75, -1667.05, -1437.15, -1475.86, 0.000, 0.000, 0.000, 15:23:58.897
90, -1889.70, -1647.56, -1420.02, -1466.91, 0.000, 0.000, 0.000, 15:23:58.897
91, -1863.83, -1620.34, -1397.40, -1429.27, 0.000, 0.000, 0.000, 15:23:58.938
92, -1862.76, -1621.43, -1386.90, -1426.25, 0.000, 0.000, 0.000, 15:23:58.938
93, -1889.74, -1659.83, -1394.61, -1457.78, 0.000, 0.000, 0.000, 15:23:58.938
94, -1879.46, -1634.15, -1431.96, -1436.09, 0.000, 0.000, 0.000, 15:23:58.938
95, -1876.72, -1635.72, -1411.13, -1440.81, 0.000, 0.000, 0.000, 15:23:58.939
96, -1885.96, -1649.50, -1420.17, -1474.40, 0.000, 0.000, 0.000, 15:23:58.939
97, -1907.69, -1675.22, -1420.10, -1494.97, 0.000, 0.000, 0.000, 15:23:58.946
98, -1883.51, -1640.64, -1422.73, -1451.29, 0.000, 0.000, 0.000, 15:23:58.947
99, -1846.20, -1597.57, -1384.69, -1386.76, 0.000, 0.000, 0.000, 15:23:58.971
100, -1885.83, -1662.59, -1418.66, -1468.85, 0.000, 0.000, 0.000, 15:23:58.971
101, -1915.46, -1675.84, -1443.43, -1479.05, 0.000, 0.000, 0.000, 15:23:58.972
102, -1899.88, -1653.33, -1424.57, -1464.98, 0.000, 0.000, 0.000, 15:23:58.972
103, -1881.29, -1633.06, -1402.75, -1435.38, 0.000, 0.000, 0.000, 15:23:58.972
104, -1906.21, -1657.45, -1429.65, -1460.23, 0.000, 0.000, 0.000, 15:23:58.973
105, -1906.23, -1672.44, -1435.63, -1492.42, 0.000, 0.000, 0.000, 15:23:58.984
106, -1865.42, -1626.83, -1390.27, -1440.68, 0.000, 0.000, 0.000, 15:23:58.984
107, -1852.11, -1600.95, -1374.86, -1407.87, 0.000, 0.000, 0.000, 15:23:58.985
108, -1884.93, -1664.75, -1417.93, -1470.17, 0.000, 0.000, 0.000, 15:23:58.985
109, -1878.73, -1643.64, -1410.66, -1443.78, 0.000, 0.000, 0.000, 15:23:58.999
110, -1885.48, -1652.07, -1421.33, -1461.50, 0.000, 0.000, 0.000, 15:23:58.999
111, -1869.68, -1641.78, -1405.69, -1445.26, 0.000, 0.000, 0.000, 15:23:59.014
112, -1896.64, -1665.85, -1412.53, -1484.71, 0.000, 0.000, 0.000, 15:23:59.014
113, -1877.91, -1648.27, -1402.02, -1457.50, 0.000, 0.000, 0.000, 15:23:59.014
114, -1873.64, -1643.71, -1416.01, -1431.23, 0.000, 0.000, 0.000, 15:23:59.014
115, -1861.49, -1642.19, -1396.78, -1470.45, 0.000, 0.000, 0.000, 15:23:59.031
116, -1877.58, -1646.73, -1419.43, -1460.20, 0.000, 0.000, 0.000, 15:23:59.031
117, -1902.73, -1673.13, -1435.03, -1472.43, 0.000, 0.000, 0.000, 15:23:59.045
118, -1877.87, -1651.05, -1402.69, -1470.36, 0.000, 0.000, 0.000, 15:23:59.046
119, -1852.12, -1619.40, -1381.86, -1427.62, 0.000, 0.000, 0.000, 15:23:59.046
120, -1876.38, -1627.32, -1405.20, -1422.74, 0.000, 0.000, 0.000, 15:23:59.046
121, -1907.29, -1672.88, -1438.22, -1472.66, 0.000, 0.000, 0.000, 15:23:59.074
122, -1882.57, -1663.78, -1411.19, -1462.63, 0.000, 0.000, 0.000, 15:23:59.074
123, -1846.96, -1626.33, -1387.29, -1439.33, 0.000, 0.000, 0.000, 15:23:59.074
124, -1894.20, -1660.95, -1422.09, -1484.23, 0.000, 0.000, 0.000, 15:23:59.075
125, -1909.82, -1670.12, -1443.43, -1469.61, 0.000, 0.000, 0.000, 15:23:59.075
126, -1872.65, -1629.80, -1399.29, -1416.77, 0.000, 0.000, 0.000, 15:23:59.075
127, -1850.32, -1610.80, -1367.43, -1415.09, 0.000, 0.000, 0.000, 15:23:59.108
128, -1902.32, -1651.69, -1443.17, -1434.30, 0.000, 0.000, 0.000, 15:23:59.109
129, -1907.60, -1651.13, -1435.10, -1450.66, 0.000, 0.000, 0.000, 15:23:59.109
130, -1877.76, -1640.15, -1412.43, -1446.67, 0.000, 0.000, 0.000, 15:23:59.109
131, -1872.15, -1629.02, -1392.40, -1439.07, 0.000, 0.000, 0.000, 15:23:59.112
132, -1900.68, -1666.76, -1424.45, -1490.43, 0.000, 0.000, 0.000, 15:23:59.112
133, -1902.48, -1668.50, -1431.31, -1465.06, 0.000, 0.000, 0.000, 15:23:59.121
134, -1876.09, -1636.64, -1405.21, -1440.28, 0.000, 0.000, 0.000, 15:23:59.121
135, -1867.78, -1636.83, -1395.92, -1451.17, 0.000, 0.000, 0.000, 15:23:59.133
136, -1897.91, -1666.92, -1432.23, -1467.23, 0.000, 0.000, 0.000, 15:23:59.134
137, -1867.69, -1639.05, -1400.53, -1442.81, 0.000, 0.000, 0.000, 15:23:59.134
138, -1897.12, -1661.92, -1434.65, -1462.96, 0.000, 0.000, 0.000, 15:23:59.134
139, -1863.78, -1627.46, -1400.64, -1471.64, 0.000, 0.000, 0.000, 15:23:59.179
140, -1884.07, -1642.25, -1418.04, -1434.19, 0.000, 0.000, 0.000, 15:23:59.179
141, -1917.20, -1692.29, -1449.10, -1520.89, 0.000, 0.000, 0.000, 15:23:59.180
142, -1874.39, -1643.01, -1401.47, -1436.40, 0.000, 0.000, 0.000, 15:23:59.180
143, -1847.64, -1597.96, -1379.71, -1362.83, 0.000, 0.000, 0.000, 15:23:59.180
144, -1905.09, -1687.02, -1444.70, -1527.80, 0.000, 0.000, 0.000, 15:23:59.180
145, -1918.79, -1679.96, -1448.51, -1474.17, 0.000, 0.000, 0.000, 15:23:59.181
146, -1879.38, -1636.59, -1385.69, -1434.84, 0.000, 0.000, 0.000, 15:23:59.181
147, -1857.26, -1601.33, -1400.91, -1390.73, 0.000, 0.000, 0.000, 15:23:59.181
148, -1896.12, -1669.53, -1439.70, -1494.15, 0.000, 0.000, 0.000, 15:23:59.181
149, -1910.46, -1669.80, -1444.19, -1471.20, 0.000, 0.000, 0.000, 15:23:59.198
150, -1894.32, -1662.11, -1422.19, -1477.74, 0.000, 0.000, 0.000, 15:23:59.198
151, -1876.13, -1630.92, -1402.90, -1451.69, 0.000, 0.000, 0.000, 15:23:59.209
152, -1889.59, -1655.77, -1438.07, -1449.68, 0.000, 0.000, 0.000, 15:23:59.210
153, -1901.67, -1665.49, -1440.65, -1481.11, 0.000, 0.000, 0.000, 15:23:59.231
154, -1870.67, -1635.67, -1405.73, -1449.97, 0.000, 0.000, 0.000, 15:23:59.231
155, -1839.13, -1592.48, -1370.40, -1367.35, 0.000, 0.000, 0.000, 15:23:59.232
156, -1889.70, -1657.22, -1424.48, -1475.28, 0.000, 0.000, 0.000, 15:23:59.232
157, -1906.12, -1677.09, -1433.35, -1460.03, 0.000, 0.000, 0.000, 15:23:59.239
158, -1894.83, -1683.58, -1422.81, -1514.13, 0.000, 0.000, 0.000, 15:23:59.239
159, -1850.83, -1618.33, -1370.07, -1434.19, 0.000, 0.000, 0.000, 15:23:59.264
160, -1896.11, -1661.02, -1420.79, -1466.56, 0.000, 0.000, 0.000, 15:23:59.264
161, -1896.50, -1660.37, -1426.24, -1464.35, 0.000, 0.000, 0.000, 15:23:59.264
162, -1895.61, -1660.31, -1433.88, -1472.41, 0.000, 0.000, 0.000, 15:23:59.264
163, -1853.19, -1608.41, -1386.44, -1403.53, 0.000, 0.000, 0.000, 15:23:59.269
164, -1894.36, -1663.33, -1424.40, -1451.46, 0.000, 0.000, 0.000, 15:23:59.269
165, -1886.89, -1649.74, -1423.72, -1421.94, 0.000, 0.000, 0.000, 15:23:59.285
166, -1891.68, -1646.25, -1425.16, -1438.19, 0.000, 0.000, 0.000, 15:23:59.285
167, -1884.30, -1658.93, -1409.80, -1470.45, 0.000, 0.000, 0.000, 15:23:59.295
168, -1878.99, -1668.59, -1397.77, -1459.30, 0.000, 0.000, 0.000, 15:23:59.295
169, -1910.00, -1660.74, -1467.79, -1431.11, 0.000, 0.000, 0.000, 15:23:59.314
170, -1899.96, -1666.68, -1433.22, -1498.20, 0.000, 0.000, 0.000, 15:23:59.314
171, -1848.77, -1591.52, -1377.92, -1388.53, 0.000, 0.000, 0.000, 15:23:59.314
172, -1900.85, -1674.88, -1441.15, -1478.62, 0.000, 0.000, 0.000, 15:23:59.314
173, -1902.60, -1673.86, -1447.25, -1481.48, 0.000, 0.000, 0.000, 15:23:59.315
174, -1867.26, -1651.16, -1412.64, -1482.99, 0.000, 0.000, 0.000, 15:23:59.315
175, -1858.68, -1635.75, -1387.93, -1439.21, 0.000, 0.000, 0.000, 15:23:59.356
176, -1884.04, -1653.39, -1410.96, -1437.89, 0.000, 0.000, 0.000, 15:23:59.357
177, -1911.00, -1673.91, -1445.88, -1490.11, 0.000, 0.000, 0.000, 15:23:59.357
178, -1887.49, -1657.14, -1429.04, -1463.64, 0.000, 0.000, 0.000, 15:23:59.357
179, -1862.23, -1630.08, -1404.03, -1431.71, 0.000, 0.000, 0.000, 15:23:59.357
180, -1872.99, -1646.05, -1410.39, -1431.69, 0.000, 0.000, 0.000, 15:23:59.357
181, -1902.55, -1671.68, -1422.60, -1478.27, 0.000, 0.000, 0.000, 15:23:59.430
182, -1897.23, -1641.50, -1438.75, -1455.66, 0.000, 0.000, 0.000, 15:23:59.430
183, -1869.70, -1633.72, -1411.70, -1407.10, 0.000, 0.000, 0.000, 15:23:59.431
184, -1885.27, -1655.60, -1406.70, -1484.57, 0.000, 0.000, 0.000, 15:23:59.431
185, -1905.15, -1670.95, -1454.89, -1435.21, 0.000, 0.000, 0.000, 15:23:59.431
186, -1903.48, -1671.31, -1451.00, -1503.78, 0.000, 0.000, 0.000, 15:23:59.431
187, -1845.03, -1596.78, -1369.44, -1376.77, 0.000, 0.000, 0.000, 15:23:59.432
188, -1909.43, -1670.12, -1444.94, -1474.75, 0.000, 0.000, 0.000, 15:23:59.432
189, -1912.95, -1679.66, -1441.83, -1517.15, 0.000, 0.000, 0.000, 15:23:59.455
190, -1891.09, -1655.92, -1423.05, -1474.67, 0.000, 0.000, 0.000, 15:23:59.455
191, -1848.20, -1613.88, -1383.44, -1394.44, 0.000, 0.000, 0.000, 15:23:59.455
192, -1890.87, -1670.47, -1423.24, -1505.36, 0.000, 0.000, 0.000, 15:23:59.456
193, -1903.28, -1673.54, -1442.50, -1479.62, 0.000, 0.000, 0.000, 15:23:59.457
194, -1880.71, -1650.67, -1425.71, -1452.57, 0.000, 0.000, 0.000, 15:23:59.457
195, -1845.34, -1606.87, -1385.73, -1384.12, 0.000, 0.000, 0.000, 15:23:59.487
196, -1899.31, -1670.59, -1404.06, -1486.53, 0.000, 0.000, 0.000, 15:23:59.488
197, -1900.50, -1659.44, -1449.44, -1456.51, 0.000, 0.000, 0.000, 15:23:59.488
198, -1888.00, -1653.40, -1418.63, -1464.60, 0.000, 0.000, 0.000, 15:23:59.488
199, -1860.56, -1620.88, -1395.32, -1398.59, 0.000, 0.000, 0.000, 15:23:59.491
200, -1917.49, -1683.31, -1454.80, -1484.08, 0.000, 0.000, 0.000, 15:23:59.491
0, -1919.47, -1683.22, -1447.56, -1500.91, 0.000, 0.000, 0.000, 15:23:59.521
1, -1871.09, -1615.58, -1404.65, -1401.05, 0.000, 0.000, 0.000, 15:23:59.521
2, -1862.94, -1655.24, -1401.88, -1473.24, 0.000, 0.000, 0.000, 15:23:59.521
3, -1888.12, -1654.63, -1432.48, -1462.57, 0.000, 0.000, 0.000, 15:23:59.523
4, -1905.60, -1669.65, -1439.99, -1478.40, 0.000, 0.000, 0.000, 15:23:59.523
5, -1893.18, -1655.38, -1444.85, -1446.57, 0.000, 0.000, 0.000, 15:23:59.523
6, -1857.93, -1617.77, -1399.12, -1433.77, 0.000, 0.000, 0.000, 15:23:59.524
7, -1885.73, -1663.23, -1390.51, -1463.28, 0.000, 0.000, 0.000, 15:23:59.524
8, -1887.82, -1679.07, -1436.89, -1500.46, 0.000, 0.000, 0.000, 15:23:59.524
9, -1900.27, -1658.72, -1430.84, -1465.44, 0.000, 0.000, 0.000, 15:23:59.525
10, -1843.91, -1611.00, -1388.22, -1396.21, 0.000, 0.000, 0.000, 15:23:59.525
11, -1887.97, -1658.40, -1413.96, -1442.10, 0.000, 0.000, 0.000, 15:23:59.525
12, -1901.49, -1671.51, -1447.71, -1471.42, 0.000, 0.000, 0.000, 15:23:59.525
13, -1864.30, -1639.28, -1409.47, -1445.52, 0.000, 0.000, 0.000, 15:23:59.525
14, -1869.34, -1638.48, -1404.98, -1444.60, 0.000, 0.000, 0.000, 15:23:59.525
15, -1881.49, -1637.36, -1437.37, -1445.33, 0.000, 0.000, 0.000, 15:23:59.554
16, -1895.31, -1665.70, -1433.83, -1457.40, 0.000, 0.000, 0.000, 15:23:59.555
17, -1869.39, -1631.16, -1378.96, -1444.62, 0.000, 0.000, 0.000, 15:23:59.555
18, -1851.90, -1625.90, -1418.34, -1397.57, 0.000, 0.000, 0.000, 15:23:59.555
19, -1863.60, -1666.05, -1399.55, -1482.09, 0.000, 0.000, 0.000, 15:23:59.555
20, -1902.12, -1668.84, -1444.54, -1458.50, 0.000, 0.000, 0.000, 15:23:59.555
21, -1872.67, -1633.71, -1418.29, -1456.71, 0.000, 0.000, 0.000, 15:23:59.589
22, -1847.56, -1608.38, -1405.21, -1428.45, 0.000, 0.000, 0.000, 15:23:59.589
23, -1893.64, -1671.11, -1436.41, -1468.88, 0.000, 0.000, 0.000, 15:23:59.589
24, -1886.10, -1656.07, -1416.33, -1441.60, 0.000, 0.000, 0.000, 15:23:59.589
25, -1864.91, -1643.53, -1382.83, -1473.00, 0.000, 0.000, 0.000, 15:23:59.590
26, -1866.64, -1634.19, -1427.11, -1425.67, 0.000, 0.000, 0.000, 15:23:59.590
27, -1901.58, -1661.07, -1456.96, -1470.21, 0.000, 0.000, 0.000, 15:23:59.599
28, -1919.72, -1695.68, -1456.19, -1503.80, 0.000, 0.000, 0.000, 15:23:59.599
29, -1858.52, -1627.28, -1399.44, -1430.81, 0.000, 0.000, 0.000, 15:23:59.599
30, -1860.71, -1607.93, -1393.17, -1400.67, 0.000, 0.000, 0.000, 15:23:59.599
31, -1896.36, -1673.14, -1444.92, -1452.66, 0.000, 0.000, 0.000, 15:23:59.622
32, -1920.62, -1681.43, -1451.46, -1488.91, 0.000, 0.000, 0.000, 15:23:59.623
33, -1900.75, -1665.57, -1442.05, -1455.84, 0.000, 0.000, 0.000, 15:23:59.629
34, -1857.04, -1607.84, -1388.75, -1346.79, 0.000, 0.000, 0.000, 15:23:59.629
35, -1932.83, -1716.01, -1430.66, -1490.93, 0.000, 0.000, 0.000, 15:23:59.629
36, -1925.49, -1690.54, -1474.80, -1504.82, 0.000, 0.000, 0.000, 15:23:59.629
37, -1879.77, -1648.99, -1406.58, -1435.53, 0.000, 0.000, 0.000, 15:23:59.665
38, -1874.18, -1633.05, -1410.02, -1369.59, 0.000, 0.000, 0.000, 15:23:59.665
39, -1898.77, -1655.88, -1429.45, -1459.89, 0.000, 0.000, 0.000, 15:23:59.665
40, -1907.11, -1694.15, -1435.09, -1496.08, 0.000, 0.000, 0.000, 15:23:59.665
41, -1887.32, -1656.46, -1421.06, -1446.35, 0.000, 0.000, 0.000, 15:23:59.666
42, -1855.06, -1603.44, -1384.86, -1367.17, 0.000, 0.000, 0.000, 15:23:59.666
43, -1911.00, -1709.08, -1445.28, -1502.01, 0.000, 0.000, 0.000, 15:23:59.687
44, -1900.68, -1675.95, -1435.97, -1445.59, 0.000, 0.000, 0.000, 15:23:59.687
45, -1866.30, -1615.26, -1385.10, -1385.20, 0.000, 0.000, 0.000, 15:23:59.722
46, -1861.39, -1633.09, -1401.04, -1428.29, 0.000, 0.000, 0.000, 15:23:59.722
47, -1897.08, -1678.58, -1432.23, -1443.55, 0.000, 0.000, 0.000, 15:23:59.723
48, -1910.93, -1685.48, -1448.68, -1479.46, 0.000, 0.000, 0.000, 15:23:59.723
49, -1886.89, -1651.23, -1440.71, -1458.41, 0.000, 0.000, 0.000, 15:23:59.724
50, -1860.86, -1627.01, -1390.11, -1409.59, 0.000, 0.000, 0.000, 15:23:59.724
51, -1888.43, -1650.23, -1447.18, -1459.98, 0.000, 0.000, 0.000, 15:23:59.724
52, -1880.08, -1674.51, -1429.50, -1454.07, 0.000, 0.000, 0.000, 15:23:59.724
53, -1899.88, -1671.00, -1442.65, -1449.71, 0.000, 0.000, 0.000, 15:23:59.725
54, -1869.96, -1630.59, -1413.94, -1427.79, 0.000, 0.000, 0.000, 15:23:59.725
55, -1882.87, -1657.65, -1424.73, -1450.75, 0.000, 0.000, 0.000, 15:23:59.755
56, -1907.89, -1679.24, -1453.33, -1460.43, 0.000, 0.000, 0.000, 15:23:59.756
57, -1879.46, -1643.43, -1411.15, -1374.34, 0.000, 0.000, 0.000, 15:23:59.756
58, -1871.03, -1625.65, -1414.66, -1448.77, 0.000, 0.000, 0.000, 15:23:59.756
59, -1899.80, -1691.73, -1454.33, -1469.06, 0.000, 0.000, 0.000, 15:23:59.756
60, -1894.95, -1691.25, -1429.57, -1498.41, 0.000, 0.000, 0.000, 15:23:59.756
61, -1883.34, -1660.92, -1422.84, -1454.20, 0.000, 0.000, 0.000, 15:23:59.778
62, -1866.11, -1616.67, -1404.05, -1402.63, 0.000, 0.000, 0.000, 15:23:59.778
63, -1907.37, -1679.12, -1447.31, -1466.98, 0.000, 0.000, 0.000, 15:23:59.779
64, -1920.77, -1709.92, -1453.75, -1490.77, 0.000, 0.000, 0.000, 15:23:59.780
65, -1880.72, -1651.99, -1416.03, -1420.61, 0.000, 0.000, 0.000, 15:23:59.781
66, -1869.42, -1664.95, -1401.05, -1443.38, 0.000, 0.000, 0.000, 15:23:59.781
67, -1873.70, -1639.94, -1410.66, -1405.28, 0.000, 0.000, 0.000, 15:23:59.794
68, -1925.39, -1702.34, -1471.20, -1492.64, 0.000, 0.000, 0.000, 15:23:59.794
69, -1886.61, -1652.59, -1425.17, -1400.77, 0.000, 0.000, 0.000, 15:23:59.811
70, -1870.92, -1649.71, -1411.74, -1444.45, 0.000, 0.000, 0.000, 15:23:59.811
71, -1887.99, -1659.69, -1437.34, -1459.20, 0.000, 0.000, 0.000, 15:23:59.812
72, -1915.78, -1680.42, -1455.96, -1490.00, 0.000, 0.000, 0.000, 15:23:59.812
73, -1868.35, -1650.40, -1403.26, -1442.79, 0.000, 0.000, 0.000, 15:23:59.850
74, -1863.88, -1632.29, -1407.17, -1409.42, 0.000, 0.000, 0.000, 15:23:59.850
75, -1890.16, -1668.72, -1400.44, -1478.07, 0.000, 0.000, 0.000, 15:23:59.854
76, -1908.26, -1676.71, -1461.53, -1454.66, 0.000, 0.000, 0.000, 15:23:59.854
77, -1879.10, -1651.85, -1416.02, -1453.90, 0.000, 0.000, 0.000, 15:23:59.854
78, -1863.11, -1646.17, -1389.49, -1441.72, 0.000, 0.000, 0.000, 15:23:59.855
79, -1901.35, -1671.09, -1439.15, -1478.15, 0.000, 0.000, 0.000, 15:23:59.858
80, -1900.96, -1659.09, -1439.76, -1445.96, 0.000, 0.000, 0.000, 15:23:59.859
81, -1914.56, -1693.51, -1446.98, -1522.97, 0.000, 0.000, 0.000, 15:23:59.881
82, -1856.09, -1619.57, -1385.28, -1426.42, 0.000, 0.000, 0.000, 15:23:59.881
83, -1903.81, -1673.68, -1440.96, -1482.90, 0.000, 0.000, 0.000, 15:23:59.881
84, -1905.24, -1699.55, -1445.79, -1475.13, 0.000, 0.000, 0.000, 15:23:59.881
85, -1885.70, -1660.13, -1410.58, -1425.03, 0.000, 0.000, 0.000, 15:23:59.888
86, -1848.80, -1624.80, -1384.43, -1405.86, 0.000, 0.000, 0.000, 15:23:59.888
87, -1888.66, -1656.77, -1426.50, -1460.44, 0.000, 0.000, 0.000, 15:23:59.899
88, -1898.61, -1643.07, -1418.35, -1375.31, 0.000, 0.000, 0.000, 15:23:59.899
89, -1912.76, -1696.37, -1450.11, -1524.52, 0.000, 0.000, 0.000, 15:23:59.899
90, -1874.35, -1638.84, -1405.24, -1438.93, 0.000, 0.000, 0.000, 15:23:59.899
91, -1894.97, -1643.84, -1428.86, -1451.33, 0.000, 0.000, 0.000, 15:23:59.914
92, -1927.41, -1711.90, -1456.93, -1495.22, 0.000, 0.000, 0.000, 15:23:59.914
93, -1887.97, -1665.20, -1416.30, -1445.13, 0.000, 0.000, 0.000, 15:23:59.929
94, -1861.14, -1630.62, -1395.52, -1414.64, 0.000, 0.000, 0.000, 15:23:59.930
95, -1895.65, -1666.10, -1425.46, -1453.69, 0.000, 0.000, 0.000, 15:23:59.931
96, -1906.41, -1679.49, -1433.20, -1476.80, 0.000, 0.000, 0.000, 15:23:59.931
97, -1895.28, -1662.40, -1439.61, -1452.30, 0.000, 0.000, 0.000, 15:23:59.944
98, -1859.93, -1621.05, -1391.50, -1418.20, 0.000, 0.000, 0.000, 15:23:59.944
99, -1905.96, -1653.10, -1437.08, -1417.86, 0.000, 0.000, 0.000, 15:23:59.959
100, -1933.90, -1724.73, -1449.79, -1506.13, 0.000, 0.000, 0.000, 15:23:59.959
101, -1875.05, -1651.91, -1417.74, -1450.41, 0.000, 0.000, 0.000, 15:23:59.959
102, -1877.90, -1655.63, -1409.39, -1460.42, 0.000, 0.000, 0.000, 15:23:59.959
103, -1869.48, -1629.81, -1399.57, -1400.65, 0.000, 0.000, 0.000, 15:23:59.978
104, -1933.04, -1708.29, -1466.08, -1496.69, 0.000, 0.000, 0.000, 15:23:59.978
105, -1907.57, -1669.91, -1443.33, -1460.30, 0.000, 0.000, 0.000, 15:23:59.990
106, -1873.09, -1656.08, -1422.77, -1450.91, 0.000, 0.000, 0.000, 15:23:59.990
107, -1901.35, -1676.89, -1439.71, -1469.42, 0.000, 0.000, 0.000, 15:23:59.990
108, -1905.59, -1668.61, -1437.54, -1455.42, 0.000, 0.000, 0.000, 15:23:59.990
109, -1883.17, -1635.07, -1412.41, -1411.46, 0.000, 0.000, 0.000, 15:24:00.012
110, -1865.05, -1629.62, -1393.99, -1427.99, 0.000, 0.000, 0.000, 15:24:00.012
111, -1894.41, -1673.71, -1423.04, -1503.57, 0.000, 0.000, 0.000, 15:24:00.022
112, -1910.46, -1676.26, -1432.50, -1458.82, 0.000, 0.000, 0.000, 15:24:00.023
113, -1883.10, -1638.38, -1416.76, -1428.54, 0.000, 0.000, 0.000, 15:24:00.034
114, -1886.26, -1658.31, -1409.29, -1467.57, 0.000, 0.000, 0.000, 15:24:00.034
115, -1888.03, -1655.07, -1422.79, -1461.84, 0.000, 0.000, 0.000, 15:24:00.034
116, -1895.74, -1637.50, -1422.57, -1436.63, 0.000, 0.000, 0.000, 15:24:00.034
117, -1892.90, -1686.01, -1411.33, -1485.97, 0.000, 0.000, 0.000, 15:24:00.054
118, -1885.88, -1644.40, -1426.67, -1452.28, 0.000, 0.000, 0.000, 15:24:00.054
119, -1892.95, -1670.30, -1421.25, -1447.90, 0.000, 0.000, 0.000, 15:24:00.056
120, -1888.23, -1662.42, -1413.35, -1398.44, 0.000, 0.000, 0.000, 15:24:00.056
121, -1915.32, -1690.60, -1441.04, -1517.16, 0.000, 0.000, 0.000, 15:24:00.064
122, -1881.06, -1643.02, -1426.45, -1430.68, 0.000, 0.000, 0.000, 15:24:00.064
123, -1884.05, -1637.85, -1432.69, -1422.08, 0.000, 0.000, 0.000, 15:24:00.082
124, -1910.27, -1696.71, -1451.12, -1502.51, 0.000, 0.000, 0.000, 15:24:00.083
125, -1895.99, -1655.78, -1422.83, -1457.36, 0.000, 0.000, 0.000, 15:24:00.088
126, -1887.92, -1659.45, -1426.82, -1446.27, 0.000, 0.000, 0.000, 15:24:00.089
127, -1888.80, -1637.44, -1426.14, -1434.95, 0.000, 0.000, 0.000, 15:24:00.094
128, -1902.14, -1683.35, -1433.14, -1434.87, 0.000, 0.000, 0.000, 15:24:00.094
129, -1887.62, -1653.34, -1420.17, -1441.12, 0.000, 0.000, 0.000, 15:24:00.109
130, -1873.51, -1649.72, -1383.73, -1444.75, 0.000, 0.000, 0.000, 15:24:00.109
131, -1901.02, -1676.57, -1427.00, -1490.63, 0.000, 0.000, 0.000, 15:24:00.110
132, -1912.59, -1679.79, -1432.90, -1503.29, 0.000, 0.000, 0.000, 15:24:00.110
133, -1900.19, -1656.04, -1432.23, -1407.21, 0.000, 0.000, 0.000, 15:24:00.124
134, -1869.07, -1645.47, -1410.11, -1456.55, 0.000, 0.000, 0.000, 15:24:00.124
135, -1900.53, -1666.10, -1437.37, -1471.55, 0.000, 0.000, 0.000, 15:24:00.142
136, -1903.59, -1676.78, -1428.73, -1448.09, 0.000, 0.000, 0.000, 15:24:00.142
137, -1889.50, -1663.17, -1418.47, -1428.70, 0.000, 0.000, 0.000, 15:24:00.142
138, -1854.52, -1597.34, -1396.21, -1406.13, 0.000, 0.000, 0.000, 15:24:00.143
139, -1917.82, -1699.42, -1452.52, -1511.28, 0.000, 0.000, 0.000, 15:24:00.163
140, -1908.64, -1677.69, -1440.05, -1445.87, 0.000, 0.000, 0.000, 15:24:00.163
141, -1883.96, -1654.25, -1416.29, -1436.98, 0.000, 0.000, 0.000, 15:24:00.178
142, -1847.34, -1609.64, -1380.35, -1330.87, 0.000, 0.000, 0.000, 15:24:00.178
143, -1907.66, -1679.33, -1438.77, -1479.03, 0.000, 0.000, 0.000, 15:24:00.179
144, -1904.60, -1634.45, -1444.84, -1429.07, 0.000, 0.000, 0.000, 15:24:00.179
145, -1872.46, -1663.67, -1404.61, -1337.52, 0.000, 0.000, 0.000, 15:24:00.184
146, -1910.25, -1694.82, -1448.41, -1521.62, 0.000, 0.000, 0.000, 15:24:00.184
147, -1917.30, -1685.33, -1447.00, -1497.62, 0.000, 0.000, 0.000, 15:24:00.199
148, -1893.01, -1658.59, -1421.98, -1438.15, 0.000, 0.000, 0.000, 15:24:00.199
149, -1928.35, -1716.51, -1473.78, -1571.41, 0.000, 0.000, 0.000, 15:24:00.199
150, -1842.32, -1606.15, -1386.30, -1389.33, 0.000, 0.000, 0.000, 15:24:00.199
151, -1897.87, -1673.29, -1439.69, -1523.74, 0.000, 0.000, 0.000, 15:24:00.214
152, -1926.17, -1712.01, -1462.28, -1480.79, 0.000, 0.000, 0.000, 15:24:00.214
153, -1920.83, -1727.98, -1450.16, -1556.86, 0.000, 0.000, 0.000, 15:24:00.229
154, -1848.69, -1628.30, -1380.28, -1355.61, 0.000, 0.000, 0.000, 15:24:00.230
155, -1897.13, -1673.57, -1430.67, -1497.89, 0.000, 0.000, 0.000, 15:24:00.230
156, -1887.43, -1661.76, -1427.34, -1435.19, 0.000, 0.000, 0.000, 15:24:00.230
157, -1900.57, -1669.03, -1430.35, -1491.20, 0.000, 0.000, 0.000, 15:24:00.244
158, -1889.19, -1649.85, -1430.89, -1468.65, 0.000, 0.000, 0.000, 15:24:00.244
159, -1838.91, -1571.42, -1381.47, -1344.55, 0.000, 0.000, 0.000, 15:24:00.261
160, -1933.97, -1703.47, -1482.43, -1442.88, 0.000, 0.000, 0.000, 15:24:00.261
161, -1854.61, -1604.00, -1396.19, -1331.19, 0.000, 0.000, 0.000, 15:24:00.262
162, -1925.07, -1728.02, -1471.30, -1606.75, 0.000, 0.000, 0.000, 15:24:00.262
163, -1894.14, -1666.48, -1435.52, -1465.08, 0.000, 0.000, 0.000, 15:24:00.279
164, -1926.10, -1707.81, -1460.42, -1502.53, 0.000, 0.000, 0.000, 15:24:00.279
165, -1890.81, -1647.11, -1426.70, -1468.61, 0.000, 0.000, 0.000, 15:24:00.292
166, -1847.37, -1602.12, -1365.25, -1403.48, 0.000, 0.000, 0.000, 15:24:00.292
167, -1911.85, -1688.49, -1461.58, -1469.13, 0.000, 0.000, 0.000, 15:24:00.293
168, -1907.15, -1690.15, -1453.25, -1480.88, 0.000, 0.000, 0.000, 15:24:00.293
169, -1909.48, -1680.25, -1443.23, -1499.06, 0.000, 0.000, 0.000, 15:24:00.311
170, -1856.63, -1611.66, -1398.21, -1374.23, 0.000, 0.000, 0.000, 15:24:00.311
171, -1912.75, -1654.27, -1452.36, -1522.41, 0.000, 0.000, 0.000, 15:24:00.321
172, -1880.87, -1650.45, -1411.87, -1428.77, 0.000, 0.000, 0.000, 15:24:00.322
173, -1879.81, -1661.57, -1417.24, -1470.11, 0.000, 0.000, 0.000, 15:24:00.324
174, -1900.21, -1680.63, -1441.61, -1462.73, 0.000, 0.000, 0.000, 15:24:00.324
175, -1884.46, -1659.35, -1417.90, -1468.87, 0.000, 0.000, 0.000, 15:24:00.334
176, -1894.27, -1649.00, -1422.67, -1370.88, 0.000, 0.000, 0.000, 15:24:00.334
177, -1908.49, -1690.95, -1429.68, -1434.94, 0.000, 0.000, 0.000, 15:24:00.350
178, -1881.24, -1662.81, -1407.64, -1495.06, 0.000, 0.000, 0.000, 15:24:00.350
179, -1904.78, -1667.18, -1444.08, -1487.88, 0.000, 0.000, 0.000, 15:24:00.350
180, -1933.78, -1694.08, -1457.77, -1504.90, 0.000, 0.000, 0.000, 15:24:00.350
181, -1880.94, -1633.66, -1410.90, -1421.66, 0.000, 0.000, 0.000, 15:24:00.364
182, -1858.26, -1611.24, -1366.14, -1403.09, 0.000, 0.000, 0.000, 15:24:00.364
183, -1908.52, -1679.82, -1448.73, -1487.95, 0.000, 0.000, 0.000, 15:24:00.395
184, -1901.85, -1673.08, -1451.14, -1451.23, 0.000, 0.000, 0.000, 15:24:00.396
185, -1902.38, -1652.23, -1436.52, -1434.23, 0.000, 0.000, 0.000, 15:24:00.397
186, -1870.46, -1622.70, -1396.54, -1393.94, 0.000, 0.000, 0.000, 15:24:00.397
187, -1883.65, -1665.16, -1414.75, -1487.92, 0.000, 0.000, 0.000, 15:24:00.397
188, -1921.45, -1688.93, -1461.94, -1500.25, 0.000, 0.000, 0.000, 15:24:00.397
189, -1901.21, -1668.69, -1423.69, -1454.08, 0.000, 0.000, 0.000, 15:24:00.397
190, -1872.75, -1645.61, -1413.29, -1477.13, 0.000, 0.000, 0.000, 15:24:00.398
191, -1859.89, -1629.45, -1366.01, -1387.32, 0.000, 0.000, 0.000, 15:24:00.425
192, -1904.66, -1658.90, -1440.93, -1463.46, 0.000, 0.000, 0.000, 15:24:00.425
193, -1937.34, -1693.51, -1496.00, -1498.31, 0.000, 0.000, 0.000, 15:24:00.427
194, -1827.88, -1600.19, -1358.03, -1332.43, 0.000, 0.000, 0.000, 15:24:00.427
195, -1914.29, -1691.21, -1451.98, -1509.12, 0.000, 0.000, 0.000, 15:24:00.460
196, -1940.26, -1719.82, -1479.35, -1551.69, 0.000, 0.000, 0.000, 15:24:00.460
197, -1886.45, -1616.30, -1420.32, -1431.05, 0.000, 0.000, 0.000, 15:24:00.461
198, -1887.78, -1668.85, -1419.17, -1487.06, 0.000, 0.000, 0.000, 15:24:00.461
199, -1887.70, -1677.20, -1411.08, -1454.77, 0.000, 0.000, 0.000, 15:24:00.461
200, -1901.52, -1683.64, -1427.89, -1460.34, 0.000, 0.000, 0.000, 15:24:00.461
0, -1896.86, -1661.60, -1442.56, -1454.81, 0.000, 0.000, 0.000, 15:24:00.462
1, -1866.56, -1643.61, -1399.35, -1437.61, 0.000, 0.000, 0.000, 15:24:00.469
2, -1879.30, -1642.69, -1394.79, -1417.82, 0.000, 0.000, 0.000, 15:24:00.469
3, -1926.28, -1703.06, -1471.13, -1464.94, 0.000, 0.000, 0.000, 15:24:00.484
4, -1882.82, -1663.97, -1411.90, -1447.02, 0.000, 0.000, 0.000, 15:24:00.484
5, -1878.76, -1633.56, -1433.30, -1422.06, 0.000, 0.000, 0.000, 15:24:00.484
6, -1926.46, -1685.75, -1465.19, -1545.17, 0.000, 0.000, 0.000, 15:24:00.484
7, -1907.59, -1703.81, -1440.79, -1462.65, 0.000, 0.000, 0.000, 15:24:00.515
8, -1896.75, -1666.29, -1426.82, -1498.80, 0.000, 0.000, 0.000, 15:24:00.515
9, -1853.28, -1603.45, -1374.03, -1408.01, 0.000, 0.000, 0.000, 15:24:00.515
10, -1888.09, -1669.70, -1397.87, -1449.77, 0.000, 0.000, 0.000, 15:24:00.515
11, -1887.98, -1625.55, -1447.02, -1392.13, 0.000, 0.000, 0.000, 15:24:00.515
12, -1923.11, -1705.75, -1463.74, -1529.09, 0.000, 0.000, 0.000, 15:24:00.516
13, -1889.68, -1633.52, -1426.73, -1416.79, 0.000, 0.000, 0.000, 15:24:00.547
14, -1859.31, -1612.61, -1379.22, -1394.13, 0.000, 0.000, 0.000, 15:24:00.548
15, -1921.20, -1704.03, -1457.12, -1527.85, 0.000, 0.000, 0.000, 15:24:00.552
16, -1894.17, -1664.18, -1434.16, -1480.27, 0.000, 0.000, 0.000, 15:24:00.552
17, -1860.29, -1632.07, -1392.20, -1412.39, 0.000, 0.000, 0.000, 15:24:00.552
18, -1893.33, -1668.77, -1394.37, -1449.50, 0.000, 0.000, 0.000, 15:24:00.553
19, -1914.39, -1699.87, -1463.50, -1528.22, 0.000, 0.000, 0.000, 15:24:00.559
20, -1900.97, -1654.90, -1434.92, -1385.36, 0.000, 0.000, 0.000, 15:24:00.559
21, -1899.61, -1678.65, -1433.96, -1509.11, 0.000, 0.000, 0.000, 15:24:00.575
22, -1880.47, -1644.01, -1415.64, -1425.48, 0.000, 0.000, 0.000, 15:24:00.576
23, -1913.02, -1694.26, -1454.94, -1465.99, 0.000, 0.000, 0.000, 15:24:00.576
24, -1901.47, -1661.44, -1441.19, -1451.46, 0.000, 0.000, 0.000, 15:24:00.576
25, -1883.93, -1659.37, -1420.20, -1479.10, 0.000, 0.000, 0.000, 15:24:00.595
26, -1872.98, -1633.28, -1403.17, -1435.04, 0.000, 0.000, 0.000, 15:24:00.596
27, -1904.84, -1675.30, -1412.66, -1430.50, 0.000, 0.000, 0.000, 15:24:00.609
28, -1934.79, -1700.41, -1478.32, -1505.80, 0.000, 0.000, 0.000, 15:24:00.609
29, -1876.61, -1631.40, -1407.29, -1403.50, 0.000, 0.000, 0.000, 15:24:00.609
30, -1886.18, -1674.71, -1416.79, -1451.49, 0.000, 0.000, 0.000, 15:24:00.610
31, -1910.04, -1677.03, -1425.43, -1470.46, 0.000, 0.000, 0.000, 15:24:00.626
32, -1911.10, -1688.37, -1453.72, -1496.87, 0.000, 0.000, 0.000, 15:24:00.626
33, -1867.00, -1622.14, -1395.26, -1382.87, 0.000, 0.000, 0.000, 15:24:00.633
34, -1898.53, -1666.39, -1431.27, -1507.22, 0.000, 0.000, 0.000, 15:24:00.634
35, -1905.42, -1675.94, -1438.13, -1470.23, 0.000, 0.000, 0.000, 15:24:00.634
36, -1894.90, -1684.20, -1436.71, -1489.24, 0.000, 0.000, 0.000, 15:24:00.634
37, -1865.28, -1630.48, -1387.73, -1394.18, 0.000, 0.000, 0.000, 15:24:00.666
38, -1879.84, -1665.47, -1365.82, -1470.64, 0.000, 0.000, 0.000, 15:24:00.667
39, -1906.33, -1662.53, -1467.97, -1451.99, 0.000, 0.000, 0.000, 15:24:00.667
40, -1903.30, -1675.36, -1436.56, -1483.74, 0.000, 0.000, 0.000, 15:24:00.668
41, -1873.71, -1639.47, -1406.31, -1460.69, 0.000, 0.000, 0.000, 15:24:00.668
42, -1889.19, -1661.29, -1433.45, -1448.79, 0.000, 0.000, 0.000, 15:24:00.668
43, -1920.63, -1691.81, -1462.34, -1473.96, 0.000, 0.000, 0.000, 15:24:00.679
44, -1892.87, -1625.69, -1423.03, -1392.48, 0.000, 0.000, 0.000, 15:24:00.679
45, -1892.17, -1677.08, -1413.35, -1471.13, 0.000, 0.000, 0.000, 15:24:00.696
46, -1902.74, -1668.80, -1422.96, -1460.10, 0.000, 0.000, 0.000, 15:24:00.697
47, -1911.14, -1681.15, -1406.63, -1484.49, 0.000, 0.000, 0.000, 15:24:00.698
48, -1900.20, -1632.75, -1433.32, -1414.94, 0.000, 0.000, 0.000, 15:24:00.698
49, -1865.73, -1639.27, -1399.90, -1398.81, 0.000, 0.000, 0.000, 15:24:00.709
50, -1909.37, -1695.74, -1431.94, -1487.85, 0.000, 0.000, 0.000, 15:24:00.710
51, -1923.19, -1700.04, -1456.80, -1527.64, 0.000, 0.000, 0.000, 15:24:00.724
52, -1887.85, -1651.77, -1408.07, -1455.52, 0.000, 0.000, 0.000, 15:24:00.724
53, -1854.37, -1616.37, -1381.54, -1402.77, 0.000, 0.000, 0.000, 15:24:00.724
54, -1895.74, -1639.82, -1444.82, -1411.72, 0.000, 0.000, 0.000, 15:24:00.725
55, -1949.61, -1724.54, -1484.29, -1538.69, 0.000, 0.000, 0.000, 15:24:00.739
56, -1876.75, -1611.64, -1415.78, -1398.90, 0.000, 0.000, 0.000, 15:24:00.739
57, -1894.25, -1668.72, -1426.32, -1484.59, 0.000, 0.000, 0.000, 15:24:00.754
58, -1894.54, -1679.92, -1399.63, -1489.27, 0.000, 0.000, 0.000, 15:24:00.754
59, -1910.90, -1689.31, -1454.62, -1461.51, 0.000, 0.000, 0.000, 15:24:00.754
60, -1889.18, -1635.80, -1416.85, -1436.95, 0.000, 0.000, 0.000, 15:24:00.755
61, -1874.08, -1664.38, -1414.97, -1457.90, 0.000, 0.000, 0.000, 15:24:00.790
62, -1874.75, -1648.71, -1392.59, -1450.60, 0.000, 0.000, 0.000, 15:24:00.790
63, -1935.07, -1693.74, -1431.99, -1469.57, 0.000, 0.000, 0.000, 15:24:00.791
64, -1904.04, -1671.52, -1443.84, -1425.17, 0.000, 0.000, 0.000, 15:24:00.791
65, -1879.95, -1633.33, -1399.39, -1409.22, 0.000, 0.000, 0.000, 15:24:00.791
66, -1920.16, -1667.94, -1468.23, -1484.72, 0.000, 0.000, 0.000, 15:24:00.791
67, -1913.86, -1696.82, -1430.44, -1502.70, 0.000, 0.000, 0.000, 15:24:00.799
68, -1906.83, -1666.75, -1461.45, -1477.11, 0.000, 0.000, 0.000, 15:24:00.799
69, -1885.20, -1650.91, -1430.00, -1454.80, 0.000, 0.000, 0.000, 15:24:00.829
70, -1890.09, -1653.73, -1411.88, -1464.08, 0.000, 0.000, 0.000, 15:24:00.829
71, -1918.21, -1695.14, -1464.40, -1479.21, 0.000, 0.000, 0.000, 15:24:00.829
72, -1883.33, -1630.66, -1404.33, -1411.69, 0.000, 0.000, 0.000, 15:24:00.829
73, -1875.83, -1652.49, -1397.83, -1432.82, 0.000, 0.000, 0.000, 15:24:00.830
74, -1897.99, -1634.67, -1436.54, -1442.30, 0.000, 0.000, 0.000, 15:24:00.830
75, -1907.38, -1643.77, -1436.73, -1430.19, 0.000, 0.000, 0.000, 15:24:00.830
76, -1926.05, -1758.91, -1418.82, -1561.85, 0.000, 0.000, 0.000, 15:24:00.830
77, -1868.14, -1638.16, -1399.30, -1399.49, 0.000, 0.000, 0.000, 15:24:00.844
78, -1924.37, -1687.38, -1467.06, -1492.44, 0.000, 0.000, 0.000, 15:24:00.845
79, -1914.83, -1680.54, -1451.92, -1468.97, 0.000, 0.000, 0.000, 15:24:00.859
80, -1890.34, -1664.65, -1406.96, -1471.48, 0.000, 0.000, 0.000, 15:24:00.859
81, -1861.55, -1642.08, -1402.76, -1435.82, 0.000, 0.000, 0.000, 15:24:00.874
82, -1923.86, -1688.30, -1451.76, -1481.49, 0.000, 0.000, 0.000, 15:24:00.874
83, -1899.45, -1670.15, -1426.04, -1476.33, 0.000, 0.000, 0.000, 15:24:00.889
84, -1888.01, -1641.32, -1421.67, -1412.03, 0.000, 0.000, 0.000, 15:24:00.889
85, -1886.81, -1632.46, -1410.01, -1462.13, 0.000, 0.000, 0.000, 15:24:00.890
86, -1903.88, -1678.06, -1415.31, -1473.34, 0.000, 0.000, 0.000, 15:24:00.890
87, -1928.96, -1678.70, -1439.72, -1456.45, 0.000, 0.000, 0.000, 15:24:00.904
88, -1907.82, -1678.31, -1437.47, -1450.52, 0.000, 0.000, 0.000, 15:24:00.905
89, -1876.05, -1626.21, -1410.56, -1433.59, 0.000, 0.000, 0.000, 15:24:00.905
90, -1879.94, -1665.16, -1411.33, -1425.22, 0.000, 0.000, 0.000, 15:24:00.905
91, -1949.33, -1724.58, -1478.99, -1522.80, 0.000, 0.000, 0.000, 15:24:00.920
92, -1893.13, -1652.17, -1414.78, -1479.70, 0.000, 0.000, 0.000, 15:24:00.921
93, -1890.42, -1655.82, -1410.59, -1454.48, 0.000, 0.000, 0.000, 15:24:00.943
94, -1879.69, -1668.13, -1410.40, -1463.94, 0.000, 0.000, 0.000, 15:24:00.943
95, -1927.37, -1677.61, -1461.80, -1478.79, 0.000, 0.000, 0.000, 15:24:00.943
96, -1897.02, -1658.16, -1404.96, -1401.44, 0.000, 0.000, 0.000, 15:24:00.943
97, -1900.51, -1681.95, -1439.75, -1489.61, 0.000, 0.000, 0.000, 15:24:00.949
98, -1893.90, -1661.41, -1424.74, -1437.36, 0.000, 0.000, 0.000, 15:24:00.949
99, -1908.89, -1646.17, -1434.87, -1450.45, 0.000, 0.000, 0.000, 15:24:00.964
100, -1900.94, -1706.39, -1415.06, -1459.20, 0.000, 0.000, 0.000, 15:24:00.964
101, -1884.29, -1634.66, -1420.33, -1418.50, 0.000, 0.000, 0.000, 15:24:00.965
102, -1901.34, -1669.86, -1416.88, -1461.77, 0.000, 0.000, 0.000, 15:24:00.965
103, -1917.27, -1700.91, -1453.11, -1508.33, 0.000, 0.000, 0.000, 15:24:00.979
104, -1910.17, -1683.04, -1414.65, -1468.01, 0.000, 0.000, 0.000, 15:24:00.979
105, -1877.72, -1633.25, -1430.59, -1424.89, 0.000, 0.000, 0.000, 15:24:00.994
106, -1868.43, -1640.58, -1406.36, -1443.28, 0.000, 0.000, 0.000, 15:24:00.994
107, -1932.25, -1686.20, -1473.12, -1424.46, 0.000, 0.000, 0.000, 15:24:00.994
108, -1916.11, -1691.31, -1446.37, -1513.66, 0.000, 0.000, 0.000, 15:24:00.994
109, -1879.66, -1648.57, -1407.30, -1446.43, 0.000, 0.000, 0.000, 15:24:01.009
110, -1887.63, -1644.62, -1429.40, -1450.82, 0.000, 0.000, 0.000, 15:24:01.009
111, -1900.78, -1692.98, -1424.11, -1487.99, 0.000, 0.000, 0.000, 15:24:01.027
112, -1914.51, -1655.35, -1436.49, -1429.39, 0.000, 0.000, 0.000, 15:24:01.055
113, -1874.71, -1646.07, -1414.90, -1412.70, 0.000, 0.000, 0.000, 15:24:01.057
114, -1927.25, -1673.30, -1467.85, -1506.69, 0.000, 0.000, 0.000, 15:24:01.057
115, -1914.51, -1670.31, -1439.11, -1483.82, 0.000, 0.000, 0.000, 15:24:01.057
116, -1921.84, -1702.50, -1464.07, -1473.45, 0.000, 0.000, 0.000, 15:24:01.057
117, -1876.06, -1626.52, -1412.61, -1403.18, 0.000, 0.000, 0.000, 15:24:01.057
118, -1882.22, -1662.60, -1404.83, -1429.82, 0.000, 0.000, 0.000, 15:24:01.058
119, -1910.93, -1700.59, -1437.63, -1508.37, 0.000, 0.000, 0.000, 15:24:01.058
120, -1925.22, -1666.00, -1442.30, -1461.56, 0.000, 0.000, 0.000, 15:24:01.058
121, -1898.15, -1652.16, -1451.83, -1418.38, 0.000, 0.000, 0.000, 15:24:01.069
122, -1907.59, -1658.85, -1436.62, -1441.51, 0.000, 0.000, 0.000, 15:24:01.069
123, -1921.57, -1681.98, -1425.34, -1492.88, 0.000, 0.000, 0.000, 15:24:01.089
124, -1910.20, -1674.42, -1465.52, -1452.70, 0.000, 0.000, 0.000, 15:24:01.090
125, -1883.25, -1654.67, -1424.97, -1443.58, 0.000, 0.000, 0.000, 15:24:01.090
126, -1891.72, -1659.40, -1421.30, -1466.87, 0.000, 0.000, 0.000, 15:24:01.090
127, -1905.78, -1666.42, -1456.53, -1429.56, 0.000, 0.000, 0.000, 15:24:01.099
128, -1882.01, -1644.33, -1419.27, -1471.56, 0.000, 0.000, 0.000, 15:24:01.099
129, -1874.22, -1644.68, -1399.38, -1429.73, 0.000, 0.000, 0.000, 15:24:01.114
130, -1903.89, -1667.27, -1431.76, -1448.32, 0.000, 0.000, 0.000, 15:24:01.114
131, -1902.70, -1652.21, -1428.79, -1442.16, 0.000, 0.000, 0.000, 15:24:01.117
132, -1942.72, -1712.39, -1476.25, -1506.16, 0.000, 0.000, 0.000, 15:24:01.117
133, -1882.85, -1663.35, -1420.47, -1434.57, 0.000, 0.000, 0.000, 15:24:01.129
134, -1895.50, -1657.36, -1427.24, -1460.53, 0.000, 0.000, 0.000, 15:24:01.129
135, -1922.00, -1694.07, -1465.82, -1477.36, 0.000, 0.000, 0.000, 15:24:01.144
136, -1887.55, -1643.92, -1407.20, -1410.00, 0.000, 0.000, 0.000, 15:24:01.144
137, -1889.94, -1666.21, -1439.04, -1442.44, 0.000, 0.000, 0.000, 15:24:01.144
138, -1891.32, -1649.03, -1429.06, -1426.56, 0.000, 0.000, 0.000, 15:24:01.145
139, -1922.33, -1713.11, -1444.73, -1507.11, 0.000, 0.000, 0.000, 15:24:01.213
140, -1891.07, -1672.83, -1422.88, -1455.85, 0.000, 0.000, 0.000, 15:24:01.213
141, -1879.83, -1642.80, -1421.15, -1424.07, 0.000, 0.000, 0.000, 15:24:01.213
142, -1893.75, -1652.81, -1395.79, -1478.70, 0.000, 0.000, 0.000, 15:24:01.214
143, -1929.56, -1697.51, -1485.32, -1490.87, 0.000, 0.000, 0.000, 15:24:01.214
144, -1898.55, -1637.23, -1434.69, -1408.38, 0.000, 0.000, 0.000, 15:24:01.214
145, -1913.36, -1691.81, -1460.05, -1497.69, 0.000, 0.000, 0.000, 15:24:01.214
146, -1893.38, -1667.01, -1427.74, -1467.56, 0.000, 0.000, 0.000, 15:24:01.214
147, -1912.04, -1684.88, -1447.22, -1499.41, 0.000, 0.000, 0.000, 15:24:01.214
148, -1887.66, -1650.11, -1395.31, -1455.23, 0.000, 0.000, 0.000, 15:24:01.215
149, -1875.02, -1651.51, -1416.77, -1414.55, 0.000, 0.000, 0.000, 15:24:01.215
150, -1888.97, -1659.35, -1424.34, -1453.43, 0.000, 0.000, 0.000, 15:24:01.215
151, -1923.15, -1693.58, -1461.33, -1493.79, 0.000, 0.000, 0.000, 15:24:01.244
152, -1884.31, -1636.05, -1416.83, -1414.43, 0.000, 0.000, 0.000, 15:24:01.244
153, -1891.38, -1645.01, -1420.52, -1427.20, 0.000, 0.000, 0.000, 15:24:01.245
154, -1898.74, -1654.54, -1439.86, -1448.12, 0.000, 0.000, 0.000, 15:24:01.245
155, -1937.42, -1696.39, -1478.22, -1513.36, 0.000, 0.000, 0.000, 15:24:01.245
156, -1908.61, -1663.05, -1444.29, -1465.20, 0.000, 0.000, 0.000, 15:24:01.245
157, -1864.57, -1640.81, -1370.85, -1429.46, 0.000, 0.000, 0.000, 15:24:01.256
158, -1894.36, -1650.12, -1441.81, -1447.29, 0.000, 0.000, 0.000, 15:24:01.256
159, -1917.98, -1679.40, -1446.17, -1499.40, 0.000, 0.000, 0.000, 15:24:01.276
160, -1888.08, -1661.90, -1418.34, -1436.05, 0.000, 0.000, 0.000, 15:24:01.276
161, -1883.29, -1662.71, -1401.66, -1492.43, 0.000, 0.000, 0.000, 15:24:01.277
162, -1887.89, -1653.08, -1416.37, -1453.09, 0.000, 0.000, 0.000, 15:24:01.277
163, -1923.75, -1675.19, -1460.36, -1494.88, 0.000, 0.000, 0.000, 15:24:01.321
164, -1887.65, -1647.62, -1419.45, -1436.35, 0.000, 0.000, 0.000, 15:24:01.321
165, -1885.33, -1663.49, -1429.70, -1458.73, 0.000, 0.000, 0.000, 15:24:01.322
166, -1869.65, -1635.39, -1394.62, -1406.83, 0.000, 0.000, 0.000, 15:24:01.322
167, -1940.74, -1698.84, -1475.66, -1497.78, 0.000, 0.000, 0.000, 15:24:01.322
168, -1885.96, -1645.02, -1415.50, -1408.75, 0.000, 0.000, 0.000, 15:24:01.322
169, -1889.09, -1646.15, -1428.60, -1438.89, 0.000, 0.000, 0.000, 15:24:01.344
170, -1887.87, -1663.69, -1419.50, -1452.69, 0.000, 0.000, 0.000, 15:24:01.344
171, -1922.14, -1707.56, -1458.86, -1505.51, 0.000, 0.000, 0.000, 15:24:01.344
172, -1931.88, -1690.19, -1479.98, -1473.77, 0.000, 0.000, 0.000, 15:24:01.344
173, -1863.89, -1636.08, -1369.60, -1432.65, 0.000, 0.000, 0.000, 15:24:01.349
174, -1876.93, -1640.22, -1427.11, -1398.55, 0.000, 0.000, 0.000, 15:24:01.351
175, -1946.58, -1713.24, -1456.55, -1509.37, 0.000, 0.000, 0.000, 15:24:01.351
176, -1907.73, -1664.42, -1454.86, -1480.76, 0.000, 0.000, 0.000, 15:24:01.351
177, -1873.53, -1645.42, -1395.50, -1440.39, 0.000, 0.000, 0.000, 15:24:01.373
178, -1875.61, -1630.03, -1403.07, -1434.93, 0.000, 0.000, 0.000, 15:24:01.374
179, -1914.95, -1700.56, -1437.03, -1503.72, 0.000, 0.000, 0.000, 15:24:01.374
180, -1919.89, -1686.65, -1460.46, -1491.97, 0.000, 0.000, 0.000, 15:24:01.374
181, -1896.41, -1654.07, -1424.07, -1458.92, 0.000, 0.000, 0.000, 15:24:01.374
182, -1889.29, -1654.01, -1389.77, -1464.62, 0.000, 0.000, 0.000, 15:24:01.374
183, -1934.04, -1681.91, -1486.64, -1469.14, 0.000, 0.000, 0.000, 15:24:01.383
184, -1909.97, -1669.93, -1438.12, -1466.88, 0.000, 0.000, 0.000, 15:24:01.384
185, -1874.38, -1637.15, -1410.74, -1432.71, 0.000, 0.000, 0.000, 15:24:01.384
186, -1876.80, -1647.95, -1413.10, -1430.51, 0.000, 0.000, 0.000, 15:24:01.384
187, -1950.88, -1703.17, -1489.45, -1500.62, 0.000, 0.000, 0.000, 15:24:01.422
188, -1884.05, -1661.93, -1395.64, -1455.48, 0.000, 0.000, 0.000, 15:24:01.423
189, -1878.37, -1637.66, -1413.46, -1438.18, 0.000, 0.000, 0.000, 15:24:01.457
190, -1899.38, -1648.84, -1423.72, -1420.47, 0.000, 0.000, 0.000, 15:24:01.457
191, -1934.35, -1688.37, -1472.15, -1467.83, 0.000, 0.000, 0.000, 15:24:01.458
192, -1917.30, -1670.15, -1424.85, -1470.84, 0.000, 0.000, 0.000, 15:24:01.458
193, -1914.85, -1665.10, -1454.52, -1464.74, 0.000, 0.000, 0.000, 15:24:01.458
194, -1912.52, -1672.85, -1428.34, -1475.12, 0.000, 0.000, 0.000, 15:24:01.459
195, -1930.15, -1681.40, -1470.89, -1494.06, 0.000, 0.000, 0.000, 15:24:01.459
196, -1916.92, -1680.11, -1456.74, -1453.93, 0.000, 0.000, 0.000, 15:24:01.459
197, -1885.10, -1645.14, -1396.75, -1443.58, 0.000, 0.000, 0.000, 15:24:01.462
198, -1870.53, -1645.40, -1395.88, -1428.47, 0.000, 0.000, 0.000, 15:24:01.462
199, -1953.50, -1704.95, -1496.65, -1520.80, 0.000, 0.000, 0.000, 15:24:01.462
200, -1879.76, -1651.23, -1399.04, -1436.43, 0.000, 0.000, 0.000, 15:24:01.462
0, -1873.11, -1644.02, -1400.25, -1439.61, 0.000, 0.000, 0.000, 15:24:01.463
1, -1928.43, -1677.81, -1459.28, -1491.11, 0.000, 0.000, 0.000, 15:24:01.474
2, -1933.98, -1679.02, -1472.08, -1479.92, 0.000, 0.000, 0.000, 15:24:01.474
3, -1902.70, -1651.83, -1422.36, -1448.13, 0.000, 0.000, 0.000, 15:24:01.489
4, -1891.83, -1661.76, -1418.33, -1431.32, 0.000, 0.000, 0.000, 15:24:01.489
5, -1876.99, -1658.02, -1407.27, -1456.98, 0.000, 0.000, 0.000, 15:24:01.504
6, -1955.97, -1705.05, -1490.01, -1489.74, 0.000, 0.000, 0.000, 15:24:01.504
7, -1917.52, -1668.25, -1445.86, -1467.86, 0.000, 0.000, 0.000, 15:24:01.504
8, -1885.88, -1650.87, -1401.58, -1459.71, 0.000, 0.000, 0.000, 15:24:01.504
9, -1883.73, -1643.07, -1398.56, -1449.10, 0.000, 0.000, 0.000, 15:24:01.542
10, -1923.34, -1689.72, -1451.51, -1488.96, 0.000, 0.000, 0.000, 15:24:01.542
11, -1881.68, -1637.35, -1421.24, -1439.32, 0.000, 0.000, 0.000, 15:24:01.542
12, -1887.61, -1666.35, -1418.29, -1453.86, 0.000, 0.000, 0.000, 15:24:01.542
13, -1897.95, -1672.54, -1434.19, -1438.63, 0.000, 0.000, 0.000, 15:24:01.543
14, -1913.37, -1691.96, -1429.58, -1489.59, 0.000, 0.000, 0.000, 15:24:01.543
15, -1945.91, -1702.10, -1487.85, -1512.60, 0.000, 0.000, 0.000, 15:24:01.543
16, -1878.35, -1659.98, -1412.07, -1454.21, 0.000, 0.000, 0.000, 15:24:01.544
17, -1899.46, -1649.19, -1432.24, -1439.25, 0.000, 0.000, 0.000, 15:24:01.548
18, -1910.13, -1673.59, -1438.37, -1458.38, 0.000, 0.000, 0.000, 15:24:01.548
19, -1912.78, -1671.63, -1422.92, -1451.32, 0.000, 0.000, 0.000, 15:24:01.564
20, -1892.04, -1643.64, -1446.93, -1441.38, 0.000, 0.000, 0.000, 15:24:01.564
21, -1900.13, -1657.51, -1424.61, -1446.73, 0.000, 0.000, 0.000, 15:24:01.600
22, -1915.00, -1695.55, -1455.34, -1477.57, 0.000, 0.000, 0.000, 15:24:01.600
23, -1913.41, -1674.51, -1451.62, -1462.41, 0.000, 0.000, 0.000, 15:24:01.600
24, -1868.74, -1636.38, -1404.87, -1422.09, 0.000, 0.000, 0.000, 15:24:01.600
25, -1892.33, -1644.59, -1413.93, -1436.76, 0.000, 0.000, 0.000, 15:24:01.600
26, -1937.46, -1685.43, -1461.84, -1474.52, 0.000, 0.000, 0.000, 15:24:01.600
27, -1906.73, -1671.73, -1433.53, -1443.90, 0.000, 0.000, 0.000, 15:24:01.621
28, -1882.94, -1643.72, -1398.90, -1435.81, 0.000, 0.000, 0.000, 15:24:01.621
29, -1918.91, -1672.51, -1441.53, -1482.02, 0.000, 0.000, 0.000, 15:24:01.622
30, -1922.88, -1693.21, -1466.67, -1501.81, 0.000, 0.000, 0.000, 15:24:01.622
31, -1903.26, -1673.38, -1428.66, -1435.97, 0.000, 0.000, 0.000, 15:24:01.623
32, -1900.50, -1660.69, -1424.72, -1459.77, 0.000, 0.000, 0.000, 15:24:01.624
33, -1921.06, -1658.57, -1461.38, -1447.75, 0.000, 0.000, 0.000, 15:24:01.639
34, -1918.07, -1694.83, -1447.90, -1505.38, 0.000, 0.000, 0.000, 15:24:01.639
35, -1904.89, -1673.28, -1438.78, -1466.54, 0.000, 0.000, 0.000, 15:24:01.649
36, -1857.87, -1636.94, -1389.81, -1433.46, 0.000, 0.000, 0.000, 15:24:01.649
37, -1898.28, -1650.98, -1444.17, -1441.91, 0.000, 0.000, 0.000, 15:24:01.654
38, -1915.76, -1684.61, -1456.01, -1484.17, 0.000, 0.000, 0.000, 15:24:01.654
39, -1889.09, -1654.41, -1408.57, -1447.26, 0.000, 0.000, 0.000, 15:24:01.670
40, -1880.86, -1638.54, -1416.11, -1428.21, 0.000, 0.000, 0.000, 15:24:01.670
41, -1902.11, -1662.44, -1452.83, -1462.65, 0.000, 0.000, 0.000, 15:24:01.670
42, -1906.06, -1665.93, -1416.76, -1476.48, 0.000, 0.000, 0.000, 15:24:01.671
43, -1907.08, -1678.19, -1452.91, -1467.03, 0.000, 0.000, 0.000, 15:24:01.684
44, -1873.87, -1639.33, -1394.46, -1445.97, 0.000, 0.000, 0.000, 15:24:01.684
45, -1888.58, -1660.15, -1437.56, -1442.73, 0.000, 0.000, 0.000, 15:24:01.699
46, -1929.90, -1684.71, -1464.60, -1490.45, 0.000, 0.000, 0.000, 15:24:01.699
47, -1894.03, -1655.66, -1428.33, -1445.72, 0.000, 0.000, 0.000, 15:24:01.699
48, -1907.23, -1678.12, -1435.15, -1491.76, 0.000, 0.000, 0.000, 15:24:01.699
49, -1886.54, -1659.94, -1432.31, -1454.38, 0.000, 0.000, 0.000, 15:24:01.714
50, -1934.76, -1683.13, -1466.98, -1488.36, 0.000, 0.000, 0.000, 15:24:01.714
51, -1902.83, -1670.85, -1422.15, -1481.02, 0.000, 0.000, 0.000, 15:24:01.733
52, -1887.21, -1645.91, -1426.91, -1420.21, 0.000, 0.000, 0.000, 15:24:01.734
53, -1898.08, -1666.96, -1426.58, -1474.31, 0.000, 0.000, 0.000, 15:24:01.734
54, -1926.20, -1683.70, -1467.50, -1476.76, 0.000, 0.000, 0.000, 15:24:01.734
55, -1913.38, -1667.66, -1441.39, -1465.29, 0.000, 0.000, 0.000, 15:24:01.744
56, -1876.44, -1639.27, -1409.75, -1400.03, 0.000, 0.000, 0.000, 15:24:01.744
57, -1889.71, -1660.90, -1413.45, -1475.01, 0.000, 0.000, 0.000, 15:24:01.770
58, -1925.64, -1694.69, -1454.11, -1493.79, 0.000, 0.000, 0.000, 15:24:01.770
59, -1916.32, -1674.67, -1464.34, -1468.27, 0.000, 0.000, 0.000, 15:24:01.771
60, -1883.20, -1634.00, -1430.21, -1430.38, 0.000, 0.000, 0.000, 15:24:01.771
61, -1869.42, -1661.21, -1388.50, -1464.90, 0.000, 0.000, 0.000, 15:24:01.773
62, -1920.06, -1685.50, -1457.70, -1480.29, 0.000, 0.000, 0.000, 15:24:01.773
63, -1917.77, -1678.60, -1455.05, -1469.89, 0.000, 0.000, 0.000, 15:24:01.789
64, -1873.02, -1637.10, -1414.55, -1443.62, 0.000, 0.000, 0.000, 15:24:01.789
65, -1879.07, -1653.56, -1415.45, -1461.94, 0.000, 0.000, 0.000, 15:24:01.789
66, -1924.93, -1672.20, -1437.43, -1482.40, 0.000, 0.000, 0.000, 15:24:01.789
67, -1909.68, -1670.74, -1467.57, -1456.28, 0.000, 0.000, 0.000, 15:24:01.805
68, -1850.94, -1619.03, -1374.75, -1408.96, 0.000, 0.000, 0.000, 15:24:01.805
69, -1913.92, -1665.74, -1455.69, -1463.88, 0.000, 0.000, 0.000, 15:24:01.825
70, -1932.33, -1690.66, -1473.47, -1487.00, 0.000, 0.000, 0.000, 15:24:01.825
71, -1887.22, -1656.70, -1421.70, -1427.96, 0.000, 0.000, 0.000, 15:24:01.825
72, -1885.44, -1619.38, -1408.80, -1417.77, 0.000, 0.000, 0.000, 15:24:01.826
73, -1910.14, -1674.30, -1456.17, -1470.63, 0.000, 0.000, 0.000, 15:24:01.838
74, -1940.88, -1700.02, -1469.10, -1486.82, 0.000, 0.000, 0.000, 15:24:01.838
75, -1921.85, -1683.81, -1455.03, -1476.73, 0.000, 0.000, 0.000, 15:24:01.849
76, -1886.33, -1650.00, -1422.16, -1445.62, 0.000, 0.000, 0.000, 15:24:01.849
77, -1900.44, -1651.94, -1436.02, -1458.97, 0.000, 0.000, 0.000, 15:24:01.849
78, -1920.86, -1689.08, -1456.96, -1490.21, 0.000, 0.000, 0.000, 15:24:01.849
79, -1902.84, -1664.73, -1444.70, -1463.41, 0.000, 0.000, 0.000, 15:24:01.884
80, -1892.92, -1642.12, -1397.53, -1446.40, 0.000, 0.000, 0.000, 15:24:01.884
81, -1902.75, -1657.58, -1440.89, -1455.92, 0.000, 0.000, 0.000, 15:24:01.884
82, -1922.17, -1681.72, -1454.34, -1475.37, 0.000, 0.000, 0.000, 15:24:01.884
83, -1908.17, -1655.78, -1468.75, -1457.54, 0.000, 0.000, 0.000, 15:24:01.885
84, -1874.06, -1640.94, -1409.57, -1430.40, 0.000, 0.000, 0.000, 15:24:01.885
85, -1894.81, -1659.17, -1432.47, -1453.61, 0.000, 0.000, 0.000, 15:24:01.913
86, -1922.54, -1689.22, -1459.17, -1501.41, 0.000, 0.000, 0.000, 15:24:01.913
87, -1884.77, -1648.06, -1425.89, -1450.11, 0.000, 0.000, 0.000, 15:24:01.913
88, -1882.79, -1650.86, -1418.57, -1435.24, 0.000, 0.000, 0.000, 15:24:01.913
89, -1918.02, -1672.29, -1445.23, -1476.89, 0.000, 0.000, 0.000, 15:24:01.913
90, -1919.30, -1684.39, -1456.88, -1480.17, 0.000, 0.000, 0.000, 15:24:01.913
91, -1895.34, -1642.27, -1424.11, -1395.20, 0.000, 0.000, 0.000, 15:24:01.924
92, -1875.57, -1642.82, -1404.59, -1434.90, 0.000, 0.000, 0.000, 15:24:01.924
93, -1909.39, -1664.50, -1448.49, -1479.31, 0.000, 0.000, 0.000, 15:24:01.951
94, -1916.35, -1684.93, -1447.03, -1491.10, 0.000, 0.000, 0.000, 15:24:01.952
95, -1920.96, -1670.06, -1459.43, -1476.23, 0.000, 0.000, 0.000, 15:24:01.952
96, -1889.27, -1642.30, -1416.09, -1429.66, 0.000, 0.000, 0.000, 15:24:01.952
97, -1910.62, -1667.50, -1455.87, -1472.89, 0.000, 0.000, 0.000, 15:24:01.954
98, -1932.56, -1683.69, -1463.13, -1492.13, 0.000, 0.000, 0.000, 15:24:01.954
99, -1886.36, -1641.66, -1399.60, -1453.85, 0.000, 0.000, 0.000, 15:24:01.969
100, -1879.11, -1624.25, -1428.39, -1442.64, 0.000, 0.000, 0.000, 15:24:01.969
101, -1884.43, -1661.56, -1412.60, -1446.13, 0.000, 0.000, 0.000, 15:24:01.970
102, -1944.95, -1701.83, -1497.63, -1523.81, 0.000, 0.000, 0.000, 15:24:01.970
103, -1911.39, -1674.70, -1457.55, -1470.52, 0.000, 0.000, 0.000, 15:24:02.021
104, -1893.99, -1656.44, -1408.78, -1469.59, 0.000, 0.000, 0.000, 15:24:02.021
105, -1897.79, -1661.22, -1454.52, -1459.75, 0.000, 0.000, 0.000, 15:24:02.022
106, -1932.55, -1696.22, -1468.56, -1492.49, 0.000, 0.000, 0.000, 15:24:02.022
107, -1891.14, -1650.92, -1440.98, -1428.75, 0.000, 0.000, 0.000, 15:24:02.022
108, -1887.52, -1661.02, -1434.40, -1459.61, 0.000, 0.000, 0.000, 15:24:02.022
109, -1885.12, -1665.04, -1403.98, -1454.53, 0.000, 0.000, 0.000, 15:24:02.022
110, -1947.07, -1701.54, -1495.14, -1501.08, 0.000, 0.000, 0.000, 15:24:02.022
111, -1898.34, -1652.91, -1424.69, -1430.03, 0.000, 0.000, 0.000, 15:24:02.047
112, -1908.54, -1661.30, -1445.60, -1473.53, 0.000, 0.000, 0.000, 15:24:02.047
113, -1899.41, -1662.56, -1429.87, -1468.48, 0.000, 0.000, 0.000, 15:24:02.048
114, -1900.73, -1658.91, -1424.69, -1447.83, 0.000, 0.000, 0.000, 15:24:02.048
115, -1913.85, -1683.30, -1461.15, -1480.79, 0.000, 0.000, 0.000, 15:24:02.048
116, -1896.40, -1663.25, -1438.41, -1447.38, 0.000, 0.000, 0.000, 15:24:02.048
117, -1887.33, -1649.50, -1427.19, -1448.78, 0.000, 0.000, 0.000, 15:24:02.048
118, -1915.81, -1683.52, -1453.32, -1495.11, 0.000, 0.000, 0.000, 15:24:02.048
119, -1911.73, -1683.62, -1441.33, -1474.97, 0.000, 0.000, 0.000, 15:24:02.059
