%OpenBCI Raw EEG Data
%
%Sample Rate = 200.0 Hz
%First Column = SampleIndex
%Last Column = Timestamp 
%Other Columns = EEG data in microvolts followed by Accel Data (in G) interleaved with Aux Data
0, -2795.64, -2495.04, -2363.10, -2251.98, 0.000, 0.000, 0.000, 15:31:50.993
1, -2810.42, -2496.41, -2362.46, -2239.45, 0.000, 0.000, 0.000, 15:31:51.025
2, -2769.70, -2432.16, -2322.53, -2164.03, 0.000, 0.000, 0.000, 15:31:51.028
3, -2760.27, -2466.42, -2306.16, -2179.92, 0.000, 0.000, 0.000, 15:31:51.034
4, -2800.41, -2493.11, -2354.01, -2306.60, 0.000, 0.000, 0.000, 15:31:51.035
5, -2816.72, -2548.29, -2355.33, -2319.05, 0.000, 0.000, 0.000, 15:31:51.035
6, -2723.12, -2396.27, -2274.19, -2083.54, 0.000, 0.000, 0.000, 15:31:51.036
7, -2773.15, -2498.57, -2320.62, -2270.05, 0.000, 0.000, 0.000, 15:31:51.057
8, -2755.04, -2422.45, -2300.95, -2198.49, 0.000, 0.000, 0.000, 15:31:51.057
9, -2803.08, -2527.76, -2343.51, -2278.45, 0.000, 0.000, 0.000, 15:31:51.073
10, -2776.21, -2461.99, -2318.41, -2195.11, 0.000, 0.000, 0.000, 15:31:51.074
11, -2778.62, -2479.19, -2328.48, -2275.69, 0.000, 0.000, 0.000, 15:31:51.075
12, -2776.37, -2479.97, -2322.44, -2224.95, 0.000, 0.000, 0.000, 15:31:51.075
13, -2772.40, -2447.41, -2321.26, -2222.94, 0.000, 0.000, 0.000, 15:31:51.076
14, -2760.16, -2464.41, -2303.97, -2228.84, 0.000, 0.000, 0.000, 15:31:51.076
15, -2755.78, -2452.76, -2305.43, -2217.03, 0.000, 0.000, 0.000, 15:31:51.090
16, -2766.54, -2486.32, -2296.64, -2253.26, 0.000, 0.000, 0.000, 15:31:51.091
17, -2772.98, -2474.37, -2337.41, -2193.62, 0.000, 0.000, 0.000, 15:31:51.096
18, -2761.91, -2455.26, -2326.46, -2219.00, 0.000, 0.000, 0.000, 15:31:51.097
19, -2732.91, -2416.31, -2290.90, -2182.06, 0.000, 0.000, 0.000, 15:31:51.097
20, -2751.07, -2452.62, -2299.91, -2203.48, 0.000, 0.000, 0.000, 15:31:51.098
21, -2739.40, -2432.29, -2291.18, -2118.91, 0.000, 0.000, 0.000, 15:31:51.228
22, -2786.34, -2475.35, -2337.98, -2281.38, 0.000, 0.000, 0.000, 15:31:51.229
23, -2743.46, -2430.95, -2293.41, -2205.95, 0.000, 0.000, 0.000, 15:31:51.232
24, -2769.60, -2462.66, -2326.04, -2183.52, 0.000, 0.000, 0.000, 15:31:51.233
25, -2771.87, -2465.55, -2319.98, -2219.22, 0.000, 0.000, 0.000, 15:31:51.234
26, -2740.40, -2418.12, -2293.26, -2162.08, 0.000, 0.000, 0.000, 15:31:51.234
27, -2740.13, -2421.59, -2297.06, -2225.08, 0.000, 0.000, 0.000, 15:31:51.239
28, -2734.36, -2414.42, -2285.67, -2086.19, 0.000, 0.000, 0.000, 15:31:51.239
29, -2806.83, -2540.26, -2362.55, -2322.91, 0.000, 0.000, 0.000, 15:31:51.241
30, -2744.18, -2438.62, -2300.13, -2210.13, 0.000, 0.000, 0.000, 15:31:51.242
31, -2752.66, -2444.42, -2300.44, -2221.76, 0.000, 0.000, 0.000, 15:31:51.243
32, -2771.97, -2458.86, -2319.05, -2261.81, 0.000, 0.000, 0.000, 15:31:51.243
33, -2760.13, -2439.18, -2314.64, -2218.93, 0.000, 0.000, 0.000, 15:31:51.246
34, -2749.17, -2428.96, -2296.90, -2166.19, 0.000, 0.000, 0.000, 15:31:51.247
35, -2744.98, -2449.31, -2292.87, -2221.76, 0.000, 0.000, 0.000, 15:31:51.248
36, -2767.28, -2467.39, -2317.38, -2255.24, 0.000, 0.000, 0.000, 15:31:51.248
37, -2761.55, -2455.33, -2299.70, -2217.17, 0.000, 0.000, 0.000, 15:31:51.250
38, -2702.14, -2359.85, -2251.51, -2010.63, 0.000, 0.000, 0.000, 15:31:51.251
39, -2776.47, -2486.56, -2332.95, -2361.91, 0.000, 0.000, 0.000, 15:31:51.251
40, -2736.46, -2445.51, -2290.75, -2221.26, 0.000, 0.000, 0.000, 15:31:51.252
41, -2773.18, -2473.50, -2316.08, -2245.06, 0.000, 0.000, 0.000, 15:31:51.253
42, -2758.59, -2464.84, -2307.60, -2246.68, 0.000, 0.000, 0.000, 15:31:51.253
43, -2717.43, -2401.11, -2264.25, -2143.07, 0.000, 0.000, 0.000, 15:31:51.254
44, -2741.84, -2425.92, -2292.12, -2165.35, 0.000, 0.000, 0.000, 15:31:51.254
45, -2758.45, -2440.48, -2313.13, -2179.35, 0.000, 0.000, 0.000, 15:31:51.255
46, -2700.07, -2396.16, -2261.63, -2053.49, 0.000, 0.000, 0.000, 15:31:51.255
47, -2785.42, -2476.75, -2341.53, -2349.25, 0.000, 0.000, 0.000, 15:31:51.256
48, -2747.84, -2456.84, -2303.31, -2228.34, 0.000, 0.000, 0.000, 15:31:51.256
49, -2776.67, -2468.65, -2335.84, -2274.56, 0.000, 0.000, 0.000, 15:31:51.257
50, -2737.79, -2397.97, -2290.91, -2200.47, 0.000, 0.000, 0.000, 15:31:51.257
51, -2733.15, -2449.74, -2280.62, -2184.36, 0.000, 0.000, 0.000, 15:31:51.268
52, -2752.30, -2447.77, -2309.68, -2230.55, 0.000, 0.000, 0.000, 15:31:51.268
53, -2747.32, -2435.61, -2300.74, -2169.18, 0.000, 0.000, 0.000, 15:31:51.271
54, -2764.23, -2443.03, -2313.34, -2183.82, 0.000, 0.000, 0.000, 15:31:51.272
55, -2709.71, -2389.91, -2268.21, -2114.05, 0.000, 0.000, 0.000, 15:31:51.409
56, -2791.38, -2496.13, -2347.68, -2295.46, 0.000, 0.000, 0.000, 15:31:51.410
57, -2782.52, -2480.74, -2327.13, -2225.83, 0.000, 0.000, 0.000, 15:31:51.422
58, -2764.92, -2450.83, -2313.94, -2221.56, 0.000, 0.000, 0.000, 15:31:51.423
59, -2742.54, -2425.04, -2287.44, -2224.13, 0.000, 0.000, 0.000, 15:31:51.424
60, -2737.14, -2429.15, -2278.63, -2140.24, 0.000, 0.000, 0.000, 15:31:51.424
61, -2808.18, -2490.58, -2363.04, -2292.84, 0.000, 0.000, 0.000, 15:31:51.482
62, -2759.15, -2465.65, -2310.93, -2210.21, 0.000, 0.000, 0.000, 15:31:51.483
63, -2728.24, -2429.08, -2280.87, -2191.33, 0.000, 0.000, 0.000, 15:31:51.485
64, -2745.86, -2437.52, -2297.14, -2186.64, 0.000, 0.000, 0.000, 15:31:51.486
65, -2756.53, -2436.33, -2307.41, -2190.18, 0.000, 0.000, 0.000, 15:31:51.486
66, -2717.85, -2395.03, -2273.13, -2196.27, 0.000, 0.000, 0.000, 15:31:51.486
67, -2757.95, -2448.11, -2313.19, -2208.09, 0.000, 0.000, 0.000, 15:31:51.524
68, -2763.29, -2441.72, -2324.59, -2243.14, 0.000, 0.000, 0.000, 15:31:51.524
69, -2745.71, -2439.93, -2314.56, -2199.91, 0.000, 0.000, 0.000, 15:31:51.525
70, -2726.22, -2368.81, -2289.17, -2064.26, 0.000, 0.000, 0.000, 15:31:51.526
71, -2776.14, -2516.12, -2330.66, -2302.85, 0.000, 0.000, 0.000, 15:31:51.526
72, -2739.41, -2444.79, -2280.33, -2182.66, 0.000, 0.000, 0.000, 15:31:51.538
73, -2781.42, -2494.59, -2328.51, -2298.64, 0.000, 0.000, 0.000, 15:31:51.538
74, -2738.69, -2425.45, -2290.90, -2199.44, 0.000, 0.000, 0.000, 15:31:51.539
75, -2740.84, -2443.53, -2291.92, -2227.84, 0.000, 0.000, 0.000, 15:31:51.539
76, -2740.36, -2437.39, -2285.11, -2201.10, 0.000, 0.000, 0.000, 15:31:51.540
77, -2752.05, -2442.51, -2295.84, -2218.81, 0.000, 0.000, 0.000, 15:31:51.540
78, -2753.46, -2440.42, -2305.53, -2208.45, 0.000, 0.000, 0.000, 15:31:51.540
79, -2734.40, -2403.70, -2280.87, -2155.91, 0.000, 0.000, 0.000, 15:31:51.553
80, -2737.44, -2462.29, -2277.37, -2215.88, 0.000, 0.000, 0.000, 15:31:51.554
81, -2780.54, -2502.15, -2330.60, -2276.85, 0.000, 0.000, 0.000, 15:31:51.556
82, -2723.81, -2397.15, -2281.42, -2156.91, 0.000, 0.000, 0.000, 15:31:51.556
83, -2727.31, -2440.71, -2275.29, -2171.40, 0.000, 0.000, 0.000, 15:31:51.557
84, -2770.83, -2468.17, -2302.90, -2201.24, 0.000, 0.000, 0.000, 15:31:51.558
85, -2778.97, -2471.34, -2335.95, -2211.20, 0.000, 0.000, 0.000, 15:31:51.558
86, -2741.36, -2408.84, -2295.67, -2225.86, 0.000, 0.000, 0.000, 15:31:51.558
87, -2737.39, -2457.52, -2293.20, -2219.76, 0.000, 0.000, 0.000, 15:31:51.559
88, -2741.08, -2407.08, -2286.07, -2171.68, 0.000, 0.000, 0.000, 15:31:51.559
89, -2777.59, -2465.32, -2313.82, -2254.53, 0.000, 0.000, 0.000, 15:31:51.560
90, -2769.42, -2452.59, -2299.77, -2208.11, 0.000, 0.000, 0.000, 15:31:51.560
91, -2754.23, -2453.34, -2314.24, -2219.22, 0.000, 0.000, 0.000, 15:31:51.561
92, -2755.02, -2447.36, -2299.92, -2231.39, 0.000, 0.000, 0.000, 15:31:51.561
93, -2753.55, -2403.54, -2299.83, -2110.78, 0.000, 0.000, 0.000, 15:31:51.564
94, -2791.95, -2482.92, -2335.04, -2289.84, 0.000, 0.000, 0.000, 15:31:51.564
95, -2726.33, -2425.24, -2274.29, -2189.79, 0.000, 0.000, 0.000, 15:31:51.565
96, -2734.30, -2419.85, -2287.27, -2150.21, 0.000, 0.000, 0.000, 15:31:51.566
97, -2781.50, -2447.29, -2328.45, -2216.15, 0.000, 0.000, 0.000, 15:31:51.569
98, -2777.36, -2470.10, -2316.54, -2188.08, 0.000, 0.000, 0.000, 15:31:51.569
99, -2762.81, -2425.14, -2289.46, -2256.71, 0.000, 0.000, 0.000, 15:31:51.579
100, -2746.22, -2425.58, -2284.74, -2197.11, 0.000, 0.000, 0.000, 15:31:51.581
101, -2768.10, -2474.53, -2305.87, -2214.61, 0.000, 0.000, 0.000, 15:31:51.582
102, -2768.56, -2456.84, -2303.99, -2243.41, 0.000, 0.000, 0.000, 15:31:51.582
103, -2733.68, -2417.56, -2281.45, -2163.79, 0.000, 0.000, 0.000, 15:31:51.583
104, -2743.70, -2450.37, -2265.93, -2199.03, 0.000, 0.000, 0.000, 15:31:51.586
105, -2764.76, -2434.47, -2322.35, -2241.32, 0.000, 0.000, 0.000, 15:31:51.586
106, -2771.39, -2468.85, -2305.59, -2220.18, 0.000, 0.000, 0.000, 15:31:51.587
107, -2739.04, -2426.00, -2283.11, -2143.16, 0.000, 0.000, 0.000, 15:31:51.592
108, -2750.44, -2427.16, -2299.35, -2199.52, 0.000, 0.000, 0.000, 15:31:51.608
109, -2780.24, -2467.97, -2325.77, -2224.97, 0.000, 0.000, 0.000, 15:31:51.608
110, -2770.05, -2467.40, -2314.73, -2260.99, 0.000, 0.000, 0.000, 15:31:51.609
111, -2706.79, -2379.95, -2255.77, -2137.27, 0.000, 0.000, 0.000, 15:31:51.609
112, -2762.16, -2458.86, -2315.23, -2237.14, 0.000, 0.000, 0.000, 15:31:51.609
113, -2776.71, -2481.00, -2334.63, -2263.09, 0.000, 0.000, 0.000, 15:31:51.629
114, -2745.78, -2426.49, -2296.46, -2206.13, 0.000, 0.000, 0.000, 15:31:51.630
115, -2718.48, -2391.53, -2272.40, -2173.01, 0.000, 0.000, 0.000, 15:31:51.630
116, -2699.93, -2373.45, -2254.68, -2131.03, 0.000, 0.000, 0.000, 15:31:51.632
117, -2763.23, -2479.86, -2315.06, -2271.59, 0.000, 0.000, 0.000, 15:31:51.633
118, -2785.02, -2498.77, -2334.77, -2278.52, 0.000, 0.000, 0.000, 15:31:51.634
119, -2730.47, -2433.93, -2274.24, -2197.07, 0.000, 0.000, 0.000, 15:31:51.636
120, -2730.55, -2428.56, -2276.09, -2179.20, 0.000, 0.000, 0.000, 15:31:51.636
121, -2732.57, -2392.64, -2270.21, -2122.54, 0.000, 0.000, 0.000, 15:31:51.637
122, -2789.72, -2504.09, -2336.17, -2323.82, 0.000, 0.000, 0.000, 15:31:51.637
123, -2728.61, -2398.15, -2271.66, -2103.98, 0.000, 0.000, 0.000, 15:31:51.638
124, -2755.50, -2459.03, -2303.78, -2256.08, 0.000, 0.000, 0.000, 15:31:51.638
125, -2759.28, -2429.00, -2308.86, -2170.32, 0.000, 0.000, 0.000, 15:31:51.638
126, -2777.64, -2432.20, -2320.93, -2166.98, 0.000, 0.000, 0.000, 15:31:51.639
127, -2761.33, -2473.65, -2303.89, -2249.82, 0.000, 0.000, 0.000, 15:31:51.639
128, -2728.71, -2404.47, -2264.92, -2136.17, 0.000, 0.000, 0.000, 15:31:51.639
129, -2798.76, -2486.02, -2334.12, -2243.07, 0.000, 0.000, 0.000, 15:31:51.698
130, -2765.52, -2469.51, -2292.13, -2202.72, 0.000, 0.000, 0.000, 15:31:51.699
131, -2767.47, -2485.57, -2292.41, -2268.44, 0.000, 0.000, 0.000, 15:31:51.763
132, -2712.42, -2368.52, -2265.47, -2097.84, 0.000, 0.000, 0.000, 15:31:51.764
133, -2779.35, -2494.41, -2313.07, -2278.63, 0.000, 0.000, 0.000, 15:31:51.765
134, -2738.98, -2448.21, -2294.33, -2229.66, 0.000, 0.000, 0.000, 15:31:51.765
135, -2708.46, -2404.76, -2258.33, -2204.22, 0.000, 0.000, 0.000, 15:31:51.766
136, -2729.47, -2434.91, -2269.39, -2224.39, 0.000, 0.000, 0.000, 15:31:51.766
137, -2755.70, -2475.54, -2293.85, -2245.11, 0.000, 0.000, 0.000, 15:31:51.771
138, -2724.34, -2415.34, -2255.36, -2176.15, 0.000, 0.000, 0.000, 15:31:51.772
139, -2721.72, -2426.56, -2277.20, -2196.67, 0.000, 0.000, 0.000, 15:31:51.772
140, -2740.63, -2431.59, -2293.41, -2178.52, 0.000, 0.000, 0.000, 15:31:51.772
141, -2769.31, -2463.98, -2308.95, -2237.07, 0.000, 0.000, 0.000, 15:31:51.773
142, -2727.84, -2385.05, -2281.16, -2023.96, 0.000, 0.000, 0.000, 15:31:51.775
143, -2751.64, -2460.38, -2275.63, -2283.81, 0.000, 0.000, 0.000, 15:31:51.787
144, -2759.70, -2431.36, -2344.11, -2252.19, 0.000, 0.000, 0.000, 15:31:51.787
145, -2749.02, -2451.69, -2305.47, -2221.49, 0.000, 0.000, 0.000, 15:31:51.800
146, -2759.76, -2442.63, -2316.58, -2206.93, 0.000, 0.000, 0.000, 15:31:51.806
147, -2758.00, -2437.91, -2320.16, -2235.12, 0.000, 0.000, 0.000, 15:31:51.806
148, -2701.61, -2382.44, -2255.83, -2117.97, 0.000, 0.000, 0.000, 15:31:51.807
149, -2777.75, -2486.32, -2323.86, -2279.28, 0.000, 0.000, 0.000, 15:31:51.901
150, -2731.82, -2420.43, -2294.73, -2163.58, 0.000, 0.000, 0.000, 15:31:51.902
151, -2722.92, -2453.08, -2275.05, -2235.21, 0.000, 0.000, 0.000, 15:31:51.905
152, -2690.87, -2374.89, -2236.02, -2116.89, 0.000, 0.000, 0.000, 15:31:51.905
153, -2789.83, -2529.56, -2354.72, -2336.64, 0.000, 0.000, 0.000, 15:31:51.906
154, -2733.99, -2436.25, -2277.68, -2195.04, 0.000, 0.000, 0.000, 15:31:51.906
155, -2737.33, -2443.07, -2287.85, -2235.10, 0.000, 0.000, 0.000, 15:31:51.911
156, -2689.53, -2370.50, -2238.87, -2095.39, 0.000, 0.000, 0.000, 15:31:51.911
157, -2742.58, -2422.01, -2281.86, -2200.62, 0.000, 0.000, 0.000, 15:31:52.116
158, -2785.08, -2500.25, -2329.09, -2258.33, 0.000, 0.000, 0.000, 15:31:52.136
159, -2709.51, -2403.78, -2258.55, -2150.79, 0.000, 0.000, 0.000, 15:31:52.137
160, -2741.75, -2442.59, -2293.38, -2172.71, 0.000, 0.000, 0.000, 15:31:52.138
161, -2755.52, -2434.89, -2285.62, -2202.15, 0.000, 0.000, 0.000, 15:31:52.468
162, -2757.75, -2425.89, -2325.60, -2187.73, 0.000, 0.000, 0.000, 15:31:52.469
163, -2756.74, -2463.89, -2305.64, -2253.26, 0.000, 0.000, 0.000, 15:31:52.470
164, -2748.65, -2470.65, -2295.50, -2260.21, 0.000, 0.000, 0.000, 15:31:52.470
165, -2747.01, -2436.63, -2292.98, -2188.58, 0.000, 0.000, 0.000, 15:31:52.471
166, -2737.33, -2400.26, -2268.49, -2157.15, 0.000, 0.000, 0.000, 15:31:52.471
167, -2775.56, -2505.83, -2333.73, -2284.05, 0.000, 0.000, 0.000, 15:31:52.487
168, -2691.35, -2357.29, -2244.00, -2100.50, 0.000, 0.000, 0.000, 15:31:52.487
169, -2776.16, -2471.73, -2330.73, -2174.39, 0.000, 0.000, 0.000, 15:31:52.491
170, -2770.90, -2466.22, -2298.86, -2312.57, 0.000, 0.000, 0.000, 15:31:52.492
171, -2749.73, -2464.96, -2325.50, -2259.37, 0.000, 0.000, 0.000, 15:31:52.493
172, -2715.81, -2408.40, -2245.19, -2159.33, 0.000, 0.000, 0.000, 15:31:52.493
173, -2749.41, -2436.48, -2303.96, -2228.83, 0.000, 0.000, 0.000, 15:31:52.494
174, -2760.52, -2446.11, -2324.87, -2211.99, 0.000, 0.000, 0.000, 15:31:52.495
175, -2725.33, -2406.38, -2286.95, -2140.09, 0.000, 0.000, 0.000, 15:31:52.495
176, -2702.32, -2353.13, -2251.64, -2125.83, 0.000, 0.000, 0.000, 15:31:52.496
177, -2771.68, -2458.27, -2332.66, -2217.68, 0.000, 0.000, 0.000, 15:31:52.498
178, -2784.42, -2493.21, -2331.51, -2256.03, 0.000, 0.000, 0.000, 15:31:52.498
179, -2699.05, -2366.31, -2242.38, -2026.67, 0.000, 0.000, 0.000, 15:31:52.511
180, -2785.69, -2465.47, -2328.83, -2307.90, 0.000, 0.000, 0.000, 15:31:52.512
181, -2783.74, -2486.87, -2318.58, -2280.56, 0.000, 0.000, 0.000, 15:31:52.512
182, -2783.71, -2461.93, -2325.65, -2233.68, 0.000, 0.000, 0.000, 15:31:52.513
183, -2738.26, -2443.80, -2264.11, -2200.95, 0.000, 0.000, 0.000, 15:31:52.514
184, -2725.84, -2408.80, -2276.80, -2125.77, 0.000, 0.000, 0.000, 15:31:52.514
185, -2789.24, -2490.19, -2348.45, -2275.00, 0.000, 0.000, 0.000, 15:31:52.515
186, -2762.05, -2454.37, -2315.55, -2221.42, 0.000, 0.000, 0.000, 15:31:52.516
187, -2723.59, -2409.31, -2272.17, -2190.31, 0.000, 0.000, 0.000, 15:31:52.517
188, -2705.45, -2397.52, -2271.22, -2113.80, 0.000, 0.000, 0.000, 15:31:52.517
189, -2754.70, -2463.55, -2316.30, -2219.82, 0.000, 0.000, 0.000, 15:31:52.538
190, -2776.72, -2481.81, -2334.32, -2303.91, 0.000, 0.000, 0.000, 15:31:52.557
191, -2714.47, -2425.47, -2271.12, -2164.11, 0.000, 0.000, 0.000, 15:31:52.606
192, -2726.02, -2426.70, -2286.65, -2234.19, 0.000, 0.000, 0.000, 15:31:52.607
193, -2721.22, -2385.87, -2281.71, -2138.24, 0.000, 0.000, 0.000, 15:31:52.607
194, -2763.77, -2500.98, -2321.24, -2285.78, 0.000, 0.000, 0.000, 15:31:52.608
195, -2717.95, -2427.44, -2276.85, -2197.48, 0.000, 0.000, 0.000, 15:31:52.609
196, -2705.89, -2412.32, -2254.75, -2153.00, 0.000, 0.000, 0.000, 15:31:52.609
197, -2714.00, -2388.11, -2265.35, -2154.15, 0.000, 0.000, 0.000, 15:31:52.652
198, -2739.43, -2450.04, -2269.94, -2132.12, 0.000, 0.000, 0.000, 15:31:52.653
199, -2751.39, -2454.21, -2284.45, -2235.67, 0.000, 0.000, 0.000, 15:31:52.653
200, -2731.00, -2438.21, -2282.46, -2230.34, 0.000, 0.000, 0.000, 15:31:52.654
0, -2723.64, -2403.53, -2258.38, -2177.96, 0.000, 0.000, 0.000, 15:31:52.660
1, -2751.98, -2453.46, -2310.71, -2182.41, 0.000, 0.000, 0.000, 15:31:52.661
2, -2730.30, -2428.63, -2269.55, -2189.17, 0.000, 0.000, 0.000, 15:31:52.661
3, -2762.51, -2469.46, -2312.45, -2281.79, 0.000, 0.000, 0.000, 15:31:52.703
4, -2725.04, -2397.79, -2265.15, -2144.60, 0.000, 0.000, 0.000, 15:31:52.704
5, -2775.37, -2460.81, -2338.88, -2196.74, 0.000, 0.000, 0.000, 15:31:52.704
6, -2741.29, -2429.88, -2294.72, -2201.30, 0.000, 0.000, 0.000, 15:31:52.705
7, -2723.54, -2441.64, -2274.82, -2238.93, 0.000, 0.000, 0.000, 15:31:52.705
8, -2762.33, -2459.65, -2328.77, -2247.72, 0.000, 0.000, 0.000, 15:31:52.706
9, -2726.23, -2399.79, -2278.61, -2097.90, 0.000, 0.000, 0.000, 15:31:52.706
10, -2782.26, -2496.13, -2342.65, -2331.70, 0.000, 0.000, 0.000, 15:31:52.706
11, -2723.92, -2418.43, -2279.02, -2201.79, 0.000, 0.000, 0.000, 15:31:52.707
12, -2735.63, -2406.98, -2290.84, -2176.96, 0.000, 0.000, 0.000, 15:31:52.707
13, -2745.05, -2447.97, -2282.80, -2193.48, 0.000, 0.000, 0.000, 15:31:52.862
14, -2754.39, -2449.83, -2299.90, -2219.12, 0.000, 0.000, 0.000, 15:31:52.862
15, -2723.46, -2382.11, -2249.26, -2110.45, 0.000, 0.000, 0.000, 15:31:52.863
16, -2776.86, -2479.38, -2327.90, -2216.03, 0.000, 0.000, 0.000, 15:31:52.864
17, -2774.90, -2459.01, -2311.83, -2160.59, 0.000, 0.000, 0.000, 15:31:52.905
18, -2754.59, -2428.35, -2278.03, -2187.97, 0.000, 0.000, 0.000, 15:31:52.906
19, -2800.22, -2520.48, -2352.39, -2342.67, 0.000, 0.000, 0.000, 15:31:52.910
20, -2764.16, -2465.30, -2319.84, -2188.42, 0.000, 0.000, 0.000, 15:31:52.910
21, -2796.49, -2495.50, -2350.31, -2297.89, 0.000, 0.000, 0.000, 15:31:52.911
22, -2725.40, -2399.39, -2279.77, -2149.78, 0.000, 0.000, 0.000, 15:31:52.912
23, -2743.06, -2433.49, -2294.62, -2194.52, 0.000, 0.000, 0.000, 15:31:52.912
24, -2775.08, -2468.47, -2329.15, -2273.85, 0.000, 0.000, 0.000, 15:31:52.912
25, -2763.17, -2456.68, -2321.27, -2233.73, 0.000, 0.000, 0.000, 15:31:52.913
26, -2719.72, -2409.24, -2279.76, -2157.11, 0.000, 0.000, 0.000, 15:31:52.913
27, -2712.84, -2395.43, -2272.39, -2161.62, 0.000, 0.000, 0.000, 15:31:52.913
28, -2765.89, -2473.36, -2318.27, -2242.44, 0.000, 0.000, 0.000, 15:31:52.914
29, -2769.32, -2454.01, -2329.74, -2272.64, 0.000, 0.000, 0.000, 15:31:52.914
30, -2721.70, -2419.84, -2288.01, -2195.26, 0.000, 0.000, 0.000, 15:31:52.916
31, -2723.83, -2422.17, -2282.67, -2214.65, 0.000, 0.000, 0.000, 15:31:52.917
32, -2751.10, -2443.33, -2304.78, -2227.51, 0.000, 0.000, 0.000, 15:31:52.917
33, -2742.39, -2404.43, -2284.33, -2141.35, 0.000, 0.000, 0.000, 15:31:52.918
34, -2752.55, -2460.33, -2293.69, -2256.32, 0.000, 0.000, 0.000, 15:31:52.918
35, -2735.15, -2429.08, -2283.92, -2210.35, 0.000, 0.000, 0.000, 15:31:52.919
36, -2735.46, -2425.95, -2285.85, -2156.33, 0.000, 0.000, 0.000, 15:31:52.920
37, -2772.71, -2469.29, -2313.03, -2227.05, 0.000, 0.000, 0.000, 15:31:52.921
38, -2774.62, -2485.24, -2317.92, -2274.51, 0.000, 0.000, 0.000, 15:31:52.921
39, -2713.17, -2410.26, -2257.86, -2179.19, 0.000, 0.000, 0.000, 15:31:52.922
40, -2750.32, -2445.87, -2301.37, -2169.77, 0.000, 0.000, 0.000, 15:31:52.923
41, -2748.10, -2428.52, -2302.04, -2160.69, 0.000, 0.000, 0.000, 15:31:52.924
42, -2759.35, -2465.93, -2309.08, -2248.52, 0.000, 0.000, 0.000, 15:31:52.925
43, -2721.78, -2412.98, -2275.36, -2126.34, 0.000, 0.000, 0.000, 15:31:52.926
44, -2779.44, -2476.91, -2324.32, -2283.42, 0.000, 0.000, 0.000, 15:31:52.927
45, -2715.52, -2341.42, -2266.10, -2090.51, 0.000, 0.000, 0.000, 15:31:52.929
46, -2775.79, -2500.81, -2327.33, -2298.50, 0.000, 0.000, 0.000, 15:31:52.930
47, -2722.44, -2417.68, -2276.53, -2183.89, 0.000, 0.000, 0.000, 15:31:52.932
48, -2716.69, -2398.83, -2270.63, -2132.10, 0.000, 0.000, 0.000, 15:31:52.933
49, -2740.02, -2418.14, -2290.01, -2208.03, 0.000, 0.000, 0.000, 15:31:52.971
50, -2764.38, -2464.31, -2321.12, -2273.72, 0.000, 0.000, 0.000, 15:31:52.971
51, -2696.23, -2378.24, -2237.82, -2141.26, 0.000, 0.000, 0.000, 15:31:52.972
52, -2726.03, -2411.67, -2275.31, -2130.23, 0.000, 0.000, 0.000, 15:31:52.973
53, -2768.22, -2475.94, -2309.78, -2240.19, 0.000, 0.000, 0.000, 15:31:53.014
54, -2728.72, -2419.30, -2282.77, -2127.50, 0.000, 0.000, 0.000, 15:31:53.015
55, -2725.94, -2398.07, -2278.16, -2191.55, 0.000, 0.000, 0.000, 15:31:53.016
56, -2782.12, -2491.35, -2329.51, -2284.36, 0.000, 0.000, 0.000, 15:31:53.016
57, -2762.55, -2468.75, -2312.08, -2233.81, 0.000, 0.000, 0.000, 15:31:53.017
58, -2731.48, -2426.43, -2282.38, -2190.59, 0.000, 0.000, 0.000, 15:31:53.018
59, -2723.14, -2409.72, -2276.21, -2188.23, 0.000, 0.000, 0.000, 15:31:53.020
60, -2762.09, -2479.20, -2313.56, -2234.97, 0.000, 0.000, 0.000, 15:31:53.021
61, -2758.91, -2458.28, -2306.17, -2230.33, 0.000, 0.000, 0.000, 15:31:53.022
62, -2746.40, -2448.16, -2299.22, -2221.96, 0.000, 0.000, 0.000, 15:31:53.022
63, -2673.46, -2349.02, -2238.15, -2013.71, 0.000, 0.000, 0.000, 15:31:53.023
64, -2767.76, -2466.38, -2323.79, -2292.18, 0.000, 0.000, 0.000, 15:31:53.023
65, -2759.76, -2464.72, -2313.14, -2265.40, 0.000, 0.000, 0.000, 15:31:53.025
66, -2728.06, -2434.40, -2285.92, -2202.94, 0.000, 0.000, 0.000, 15:31:53.025
67, -2727.21, -2411.63, -2276.36, -2160.97, 0.000, 0.000, 0.000, 15:31:53.053
68, -2731.57, -2399.86, -2287.61, -2134.13, 0.000, 0.000, 0.000, 15:31:53.053
69, -2780.16, -2484.94, -2323.55, -2292.84, 0.000, 0.000, 0.000, 15:31:53.096
70, -2731.56, -2415.85, -2279.42, -2174.56, 0.000, 0.000, 0.000, 15:31:53.097
71, -2737.67, -2424.35, -2287.30, -2192.80, 0.000, 0.000, 0.000, 15:31:53.097
72, -2745.40, -2436.39, -2292.26, -2189.57, 0.000, 0.000, 0.000, 15:31:53.097
73, -2791.00, -2469.03, -2335.09, -2252.79, 0.000, 0.000, 0.000, 15:31:53.098
74, -2736.78, -2418.22, -2281.95, -2151.75, 0.000, 0.000, 0.000, 15:31:53.098
75, -2731.74, -2428.10, -2271.58, -2157.83, 0.000, 0.000, 0.000, 15:31:53.098
76, -2776.46, -2467.01, -2322.45, -2261.24, 0.000, 0.000, 0.000, 15:31:53.098
77, -2752.05, -2441.76, -2302.54, -2162.50, 0.000, 0.000, 0.000, 15:31:53.099
78, -2774.48, -2449.77, -2313.98, -2253.25, 0.000, 0.000, 0.000, 15:31:53.099
79, -2731.39, -2417.05, -2286.61, -2188.37, 0.000, 0.000, 0.000, 15:31:53.099
80, -2710.46, -2381.80, -2268.32, -2055.07, 0.000, 0.000, 0.000, 15:31:53.100
81, -2813.16, -2523.75, -2367.43, -2343.75, 0.000, 0.000, 0.000, 15:31:53.100
82, -2722.78, -2401.87, -2282.83, -2167.86, 0.000, 0.000, 0.000, 15:31:53.100
83, -2722.69, -2424.99, -2272.28, -2189.47, 0.000, 0.000, 0.000, 15:31:53.101
84, -2749.27, -2454.40, -2293.55, -2212.88, 0.000, 0.000, 0.000, 15:31:53.101
85, -2751.80, -2465.85, -2301.10, -2222.47, 0.000, 0.000, 0.000, 15:31:53.101
86, -2752.20, -2459.40, -2294.08, -2276.09, 0.000, 0.000, 0.000, 15:31:53.102
87, -2663.16, -2304.54, -2196.85, -2017.01, 0.000, 0.000, 0.000, 15:31:53.102
88, -2778.58, -2514.99, -2323.27, -2316.02, 0.000, 0.000, 0.000, 15:31:53.102
89, -2756.97, -2474.54, -2290.68, -2211.30, 0.000, 0.000, 0.000, 15:31:53.102
90, -2734.44, -2433.15, -2276.33, -2180.85, 0.000, 0.000, 0.000, 15:31:53.103
91, -2706.13, -2411.39, -2244.35, -2162.24, 0.000, 0.000, 0.000, 15:31:53.103
92, -2773.23, -2482.04, -2318.21, -2239.05, 0.000, 0.000, 0.000, 15:31:53.104
93, -2775.75, -2451.26, -2324.09, -2210.95, 0.000, 0.000, 0.000, 15:31:53.104
94, -2742.52, -2432.70, -2289.31, -2190.31, 0.000, 0.000, 0.000, 15:31:53.104
95, -2754.63, -2459.16, -2304.64, -2237.18, 0.000, 0.000, 0.000, 15:31:53.105
96, -2749.31, -2422.51, -2309.84, -2159.84, 0.000, 0.000, 0.000, 15:31:53.105
97, -2770.69, -2479.23, -2329.03, -2239.53, 0.000, 0.000, 0.000, 15:31:53.105
98, -2763.37, -2468.14, -2321.92, -2260.70, 0.000, 0.000, 0.000, 15:31:53.106
99, -2723.77, -2412.78, -2279.25, -2184.31, 0.000, 0.000, 0.000, 15:31:53.106
100, -2735.21, -2406.31, -2286.01, -2159.36, 0.000, 0.000, 0.000, 15:31:53.106
101, -2741.32, -2417.25, -2283.30, -2117.06, 0.000, 0.000, 0.000, 15:31:53.107
102, -2743.39, -2436.35, -2288.29, -2220.91, 0.000, 0.000, 0.000, 15:31:53.107
103, -2685.49, -2360.53, -2234.01, -2057.95, 0.000, 0.000, 0.000, 15:31:53.107
104, -2787.47, -2498.86, -2342.19, -2323.97, 0.000, 0.000, 0.000, 15:31:53.107
105, -2771.96, -2480.20, -2309.33, -2282.78, 0.000, 0.000, 0.000, 15:31:53.108
106, -2721.42, -2419.35, -2276.28, -2173.72, 0.000, 0.000, 0.000, 15:31:53.108
107, -2715.24, -2409.64, -2268.79, -2167.44, 0.000, 0.000, 0.000, 15:31:53.108
108, -2739.88, -2421.36, -2291.56, -2167.19, 0.000, 0.000, 0.000, 15:31:53.109
109, -2788.90, -2492.97, -2325.41, -2285.00, 0.000, 0.000, 0.000, 15:31:53.109
110, -2743.52, -2431.82, -2291.51, -2201.09, 0.000, 0.000, 0.000, 15:31:53.109
111, -2718.08, -2406.66, -2272.07, -2153.70, 0.000, 0.000, 0.000, 15:31:53.110
112, -2735.23, -2418.61, -2290.97, -2129.36, 0.000, 0.000, 0.000, 15:31:53.110
113, -2776.39, -2469.73, -2338.10, -2272.02, 0.000, 0.000, 0.000, 15:31:53.110
114, -2733.74, -2430.43, -2301.95, -2194.66, 0.000, 0.000, 0.000, 15:31:53.110
115, -2682.71, -2348.19, -2247.46, -2130.53, 0.000, 0.000, 0.000, 15:31:53.111
116, -2735.34, -2451.31, -2282.84, -2251.01, 0.000, 0.000, 0.000, 15:31:53.112
117, -2749.76, -2438.79, -2323.25, -2238.43, 0.000, 0.000, 0.000, 15:31:53.112
118, -2706.23, -2395.27, -2278.95, -2173.28, 0.000, 0.000, 0.000, 15:31:53.112
119, -2696.64, -2383.19, -2270.26, -2189.65, 0.000, 0.000, 0.000, 15:31:53.113
120, -2718.85, -2407.89, -2288.65, -2189.95, 0.000, 0.000, 0.000, 15:31:53.113
121, -2732.29, -2419.86, -2295.66, -2177.28, 0.000, 0.000, 0.000, 15:31:53.113
122, -2731.36, -2421.49, -2290.89, -2177.02, 0.000, 0.000, 0.000, 15:31:53.114
123, -2727.86, -2411.97, -2295.97, -2202.99, 0.000, 0.000, 0.000, 15:31:53.114
124, -2726.80, -2410.80, -2290.61, -2158.21, 0.000, 0.000, 0.000, 15:31:53.114
125, -2754.49, -2451.74, -2319.50, -2226.68, 0.000, 0.000, 0.000, 15:31:53.115
126, -2734.45, -2414.78, -2289.94, -2148.65, 0.000, 0.000, 0.000, 15:31:53.115
127, -2746.52, -2432.41, -2304.46, -2232.19, 0.000, 0.000, 0.000, 15:31:53.115
128, -2760.05, -2435.32, -2309.40, -2218.53, 0.000, 0.000, 0.000, 15:31:53.115
129, -2771.21, -2478.45, -2326.37, -2254.44, 0.000, 0.000, 0.000, 15:31:53.116
130, -2751.95, -2443.91, -2295.02, -2181.94, 0.000, 0.000, 0.000, 15:31:53.116
131, -2736.85, -2424.09, -2292.04, -2173.25, 0.000, 0.000, 0.000, 15:31:53.116
132, -2756.65, -2448.31, -2304.45, -2219.03, 0.000, 0.000, 0.000, 15:31:53.117
133, -2754.80, -2420.42, -2292.39, -2161.96, 0.000, 0.000, 0.000, 15:31:53.117
134, -2769.87, -2482.30, -2323.89, -2273.01, 0.000, 0.000, 0.000, 15:31:53.117
135, -2700.06, -2366.60, -2250.07, -2079.19, 0.000, 0.000, 0.000, 15:31:53.118
136, -2802.91, -2507.95, -2344.63, -2308.51, 0.000, 0.000, 0.000, 15:31:53.118
137, -2767.50, -2448.90, -2309.53, -2188.31, 0.000, 0.000, 0.000, 15:31:53.118
138, -2768.24, -2452.27, -2312.42, -2210.47, 0.000, 0.000, 0.000, 15:31:53.118
139, -2738.51, -2444.50, -2286.28, -2211.61, 0.000, 0.000, 0.000, 15:31:53.119
140, -2769.24, -2467.80, -2314.51, -2235.40, 0.000, 0.000, 0.000, 15:31:53.119
141, -2753.91, -2455.12, -2296.49, -2195.22, 0.000, 0.000, 0.000, 15:31:53.119
142, -2771.04, -2464.98, -2325.13, -2240.57, 0.000, 0.000, 0.000, 15:31:53.120
143, -2749.62, -2431.28, -2307.18, -2206.94, 0.000, 0.000, 0.000, 15:31:53.120
144, -2767.38, -2453.90, -2317.94, -2225.35, 0.000, 0.000, 0.000, 15:31:53.120
145, -2777.21, -2462.05, -2322.00, -2204.67, 0.000, 0.000, 0.000, 15:31:53.121
146, -2754.02, -2434.38, -2297.34, -2177.75, 0.000, 0.000, 0.000, 15:31:53.121
147, -2725.95, -2416.93, -2278.73, -2190.63, 0.000, 0.000, 0.000, 15:31:53.121
148, -2760.48, -2447.60, -2307.59, -2215.67, 0.000, 0.000, 0.000, 15:31:53.122
149, -2760.08, -2430.52, -2311.10, -2181.86, 0.000, 0.000, 0.000, 15:31:53.122
150, -2732.16, -2404.95, -2285.39, -2138.33, 0.000, 0.000, 0.000, 15:31:53.122
151, -2748.61, -2458.98, -2301.40, -2246.31, 0.000, 0.000, 0.000, 15:31:53.122
152, -2754.31, -2445.68, -2285.22, -2187.65, 0.000, 0.000, 0.000, 15:31:53.123
153, -2741.30, -2379.97, -2315.27, -2134.22, 0.000, 0.000, 0.000, 15:31:53.123
154, -2778.74, -2498.69, -2329.67, -2278.72, 0.000, 0.000, 0.000, 15:31:53.123
155, -2745.21, -2450.76, -2297.03, -2220.41, 0.000, 0.000, 0.000, 15:31:53.124
156, -2718.49, -2394.36, -2275.79, -2146.61, 0.000, 0.000, 0.000, 15:31:53.124
157, -2778.31, -2499.21, -2336.89, -2268.21, 0.000, 0.000, 0.000, 15:31:53.124
158, -2749.94, -2452.70, -2310.68, -2200.53, 0.000, 0.000, 0.000, 15:31:53.124
159, -2738.34, -2428.64, -2301.87, -2223.28, 0.000, 0.000, 0.000, 15:31:53.125
160, -2715.26, -2397.03, -2271.54, -2152.99, 0.000, 0.000, 0.000, 15:31:53.125
161, -2776.66, -2475.63, -2329.09, -2235.49, 0.000, 0.000, 0.000, 15:31:53.125
162, -2753.47, -2449.76, -2315.80, -2187.94, 0.000, 0.000, 0.000, 15:31:53.126
163, -2724.92, -2422.66, -2283.17, -2189.62, 0.000, 0.000, 0.000, 15:31:53.126
164, -2745.50, -2444.18, -2293.58, -2195.90, 0.000, 0.000, 0.000, 15:31:53.126
165, -2787.44, -2483.07, -2358.35, -2256.67, 0.000, 0.000, 0.000, 15:31:53.126
166, -2738.85, -2420.46, -2275.18, -2159.14, 0.000, 0.000, 0.000, 15:31:53.127
167, -2731.94, -2415.73, -2304.32, -2171.89, 0.000, 0.000, 0.000, 15:31:53.128
168, -2740.82, -2434.52, -2300.67, -2226.58, 0.000, 0.000, 0.000, 15:31:53.128
169, -2741.47, -2430.86, -2294.38, -2171.23, 0.000, 0.000, 0.000, 15:31:53.128
170, -2773.47, -2467.93, -2335.49, -2246.88, 0.000, 0.000, 0.000, 15:31:53.129
171, -2741.15, -2444.79, -2300.91, -2215.92, 0.000, 0.000, 0.000, 15:31:53.129
172, -2729.45, -2426.10, -2276.10, -2210.65, 0.000, 0.000, 0.000, 15:31:53.129
173, -2768.11, -2447.18, -2329.55, -2197.27, 0.000, 0.000, 0.000, 15:31:53.129
174, -2770.53, -2473.63, -2329.54, -2235.11, 0.000, 0.000, 0.000, 15:31:53.210
175, -2717.39, -2399.79, -2253.90, -2146.52, 0.000, 0.000, 0.000, 15:31:53.211
176, -2751.90, -2463.65, -2320.27, -2237.41, 0.000, 0.000, 0.000, 15:31:53.211
177, -2772.70, -2452.14, -2330.90, -2197.51, 0.000, 0.000, 0.000, 15:31:53.211
178, -2753.69, -2425.36, -2313.08, -2199.12, 0.000, 0.000, 0.000, 15:31:53.211
179, -2725.77, -2423.70, -2270.45, -2176.58, 0.000, 0.000, 0.000, 15:31:53.212
180, -2756.26, -2460.61, -2321.24, -2235.17, 0.000, 0.000, 0.000, 15:31:53.212
181, -2750.03, -2444.82, -2303.60, -2199.10, 0.000, 0.000, 0.000, 15:31:53.212
182, -2727.44, -2404.88, -2289.61, -2135.11, 0.000, 0.000, 0.000, 15:31:53.213
183, -2728.06, -2403.09, -2295.89, -2178.71, 0.000, 0.000, 0.000, 15:31:53.213
184, -2762.00, -2480.58, -2323.62, -2254.70, 0.000, 0.000, 0.000, 15:31:53.213
185, -2752.88, -2450.94, -2311.42, -2235.80, 0.000, 0.000, 0.000, 15:31:53.213
186, -2742.21, -2421.56, -2303.51, -2204.13, 0.000, 0.000, 0.000, 15:31:53.214
187, -2728.06, -2433.92, -2289.81, -2200.11, 0.000, 0.000, 0.000, 15:31:53.214
188, -2737.56, -2446.81, -2288.03, -2225.76, 0.000, 0.000, 0.000, 15:31:53.214
189, -2757.25, -2438.86, -2319.63, -2196.11, 0.000, 0.000, 0.000, 15:31:53.215
190, -2735.75, -2424.66, -2283.41, -2151.81, 0.000, 0.000, 0.000, 15:31:53.215
191, -2743.57, -2447.52, -2288.55, -2219.24, 0.000, 0.000, 0.000, 15:31:53.215
192, -2733.09, -2400.80, -2308.00, -2179.87, 0.000, 0.000, 0.000, 15:31:53.215
193, -2773.01, -2485.17, -2309.81, -2260.00, 0.000, 0.000, 0.000, 15:31:53.216
194, -2723.16, -2396.47, -2280.58, -2124.00, 0.000, 0.000, 0.000, 15:31:53.216
195, -2774.10, -2493.88, -2340.34, -2300.97, 0.000, 0.000, 0.000, 15:31:53.216
196, -2746.52, -2444.00, -2310.05, -2218.85, 0.000, 0.000, 0.000, 15:31:53.217
197, -2731.56, -2383.66, -2291.36, -2136.72, 0.000, 0.000, 0.000, 15:31:53.217
198, -2781.59, -2485.42, -2318.59, -2208.22, 0.000, 0.000, 0.000, 15:31:53.217
199, -2730.71, -2406.76, -2299.59, -2213.42, 0.000, 0.000, 0.000, 15:31:53.217
200, -2725.73, -2413.87, -2278.34, -2136.88, 0.000, 0.000, 0.000, 15:31:53.218
0, -2764.86, -2484.56, -2318.46, -2249.37, 0.000, 0.000, 0.000, 15:31:53.218
1, -2772.97, -2471.50, -2330.33, -2261.08, 0.000, 0.000, 0.000, 15:31:53.218
2, -2717.91, -2400.28, -2288.95, -2141.36, 0.000, 0.000, 0.000, 15:31:53.219
3, -2720.78, -2414.20, -2284.16, -2189.99, 0.000, 0.000, 0.000, 15:31:53.219
4, -2783.09, -2498.81, -2333.51, -2280.69, 0.000, 0.000, 0.000, 15:31:53.219
5, -2727.15, -2407.59, -2275.93, -2125.45, 0.000, 0.000, 0.000, 15:31:53.219
6, -2748.06, -2450.42, -2306.87, -2214.01, 0.000, 0.000, 0.000, 15:31:53.220
7, -2732.70, -2425.76, -2299.53, -2219.71, 0.000, 0.000, 0.000, 15:31:53.220
8, -2776.56, -2475.95, -2339.36, -2254.08, 0.000, 0.000, 0.000, 15:31:53.220
9, -2743.40, -2435.73, -2311.60, -2199.34, 0.000, 0.000, 0.000, 15:31:53.220
10, -2698.01, -2398.51, -2262.58, -2152.27, 0.000, 0.000, 0.000, 15:31:53.221
11, -2705.47, -2402.09, -2260.55, -2107.91, 0.000, 0.000, 0.000, 15:31:53.221
12, -2792.57, -2485.11, -2363.69, -2302.24, 0.000, 0.000, 0.000, 15:31:53.221
13, -2751.72, -2473.88, -2312.45, -2208.94, 0.000, 0.000, 0.000, 15:31:53.222
14, -2728.26, -2394.26, -2296.32, -2200.39, 0.000, 0.000, 0.000, 15:31:53.222
15, -2728.45, -2417.15, -2290.29, -2161.40, 0.000, 0.000, 0.000, 15:31:53.222
16, -2783.77, -2498.85, -2333.99, -2256.17, 0.000, 0.000, 0.000, 15:31:53.223
17, -2747.33, -2428.55, -2300.60, -2220.58, 0.000, 0.000, 0.000, 15:31:53.223
18, -2727.74, -2421.88, -2286.01, -2172.35, 0.000, 0.000, 0.000, 15:31:53.223
19, -2730.99, -2429.51, -2300.81, -2167.35, 0.000, 0.000, 0.000, 15:31:53.223
20, -2794.41, -2505.09, -2354.61, -2277.43, 0.000, 0.000, 0.000, 15:31:53.224
21, -2722.11, -2383.73, -2258.91, -2147.76, 0.000, 0.000, 0.000, 15:31:53.224
22, -2769.48, -2498.69, -2336.25, -2283.94, 0.000, 0.000, 0.000, 15:31:53.224
23, -2723.60, -2398.88, -2282.35, -2165.02, 0.000, 0.000, 0.000, 15:31:53.225
24, -2770.48, -2497.59, -2308.18, -2254.90, 0.000, 0.000, 0.000, 15:31:53.225
25, -2758.88, -2453.80, -2336.18, -2221.01, 0.000, 0.000, 0.000, 15:31:53.225
26, -2728.24, -2414.86, -2289.54, -2175.21, 0.000, 0.000, 0.000, 15:31:53.225
27, -2729.49, -2405.62, -2294.36, -2164.93, 0.000, 0.000, 0.000, 15:31:53.234
28, -2747.83, -2444.82, -2314.60, -2210.53, 0.000, 0.000, 0.000, 15:31:53.235
29, -2775.15, -2485.23, -2337.82, -2279.13, 0.000, 0.000, 0.000, 15:31:53.235
30, -2735.67, -2440.11, -2295.88, -2205.27, 0.000, 0.000, 0.000, 15:31:53.235
31, -2703.91, -2396.41, -2262.76, -2123.42, 0.000, 0.000, 0.000, 15:31:53.235
32, -2771.38, -2479.98, -2332.07, -2230.27, 0.000, 0.000, 0.000, 15:31:53.236
33, -2752.23, -2434.02, -2319.75, -2210.60, 0.000, 0.000, 0.000, 15:31:53.791
34, -2731.28, -2421.63, -2306.35, -2219.96, 0.000, 0.000, 0.000, 15:31:53.792
35, -2725.61, -2423.82, -2298.33, -2167.30, 0.000, 0.000, 0.000, 15:31:53.821
36, -2771.41, -2484.19, -2341.38, -2253.96, 0.000, 0.000, 0.000, 15:31:53.823
37, -2755.30, -2458.93, -2318.64, -2263.10, 0.000, 0.000, 0.000, 15:31:53.879
38, -2704.16, -2354.50, -2276.60, -2138.80, 0.000, 0.000, 0.000, 15:31:53.880
39, -2735.42, -2453.12, -2283.90, -2217.27, 0.000, 0.000, 0.000, 15:31:53.940
40, -2752.20, -2432.26, -2325.98, -2198.40, 0.000, 0.000, 0.000, 15:31:53.942
41, -2754.40, -2468.79, -2311.19, -2252.00, 0.000, 0.000, 0.000, 15:31:53.944
42, -2720.07, -2413.23, -2293.52, -2180.89, 0.000, 0.000, 0.000, 15:31:53.944
43, -2729.45, -2402.44, -2294.32, -2204.32, 0.000, 0.000, 0.000, 15:31:53.955
44, -2753.57, -2452.54, -2327.67, -2223.56, 0.000, 0.000, 0.000, 15:31:53.959
45, -2751.99, -2453.60, -2327.26, -2225.01, 0.000, 0.000, 0.000, 15:31:53.960
46, -2722.08, -2421.71, -2277.93, -2191.20, 0.000, 0.000, 0.000, 15:31:53.961
47, -2736.43, -2432.31, -2323.24, -2223.17, 0.000, 0.000, 0.000, 15:31:53.963
48, -2745.50, -2431.36, -2313.81, -2215.12, 0.000, 0.000, 0.000, 15:31:53.963
49, -2764.33, -2461.81, -2323.32, -2226.96, 0.000, 0.000, 0.000, 15:31:53.970
50, -2712.97, -2407.02, -2274.85, -2163.04, 0.000, 0.000, 0.000, 15:31:53.971
51, -2727.57, -2428.34, -2283.21, -2208.33, 0.000, 0.000, 0.000, 15:31:53.974
52, -2752.65, -2452.29, -2310.24, -2222.64, 0.000, 0.000, 0.000, 15:31:53.974
53, -2732.62, -2424.62, -2302.29, -2194.74, 0.000, 0.000, 0.000, 15:31:53.975
54, -2716.81, -2424.98, -2271.20, -2178.21, 0.000, 0.000, 0.000, 15:31:53.975
55, -2719.11, -2423.65, -2287.33, -2180.83, 0.000, 0.000, 0.000, 15:31:53.975
56, -2759.49, -2473.93, -2285.15, -2252.41, 0.000, 0.000, 0.000, 15:31:53.975
57, -2763.17, -2451.41, -2351.77, -2229.55, 0.000, 0.000, 0.000, 15:31:53.988
58, -2729.55, -2432.21, -2297.91, -2199.63, 0.000, 0.000, 0.000, 15:31:53.989
59, -2728.18, -2404.72, -2288.17, -2166.29, 0.000, 0.000, 0.000, 15:31:54.005
60, -2763.15, -2476.10, -2325.92, -2235.31, 0.000, 0.000, 0.000, 15:31:54.006
61, -2754.10, -2445.40, -2314.69, -2211.76, 0.000, 0.000, 0.000, 15:31:54.007
62, -2727.12, -2402.50, -2288.30, -2145.89, 0.000, 0.000, 0.000, 15:31:54.007
63, -2746.17, -2453.79, -2297.07, -2236.19, 0.000, 0.000, 0.000, 15:31:54.009
64, -2768.59, -2471.68, -2332.11, -2240.35, 0.000, 0.000, 0.000, 15:31:54.009
65, -2749.37, -2446.40, -2299.74, -2212.81, 0.000, 0.000, 0.000, 15:31:54.010
66, -2732.96, -2418.43, -2293.29, -2182.00, 0.000, 0.000, 0.000, 15:31:54.010
67, -2727.48, -2416.81, -2270.54, -2181.40, 0.000, 0.000, 0.000, 15:31:54.016
68, -2735.91, -2402.26, -2317.53, -2147.87, 0.000, 0.000, 0.000, 15:31:54.016
69, -2761.32, -2483.27, -2323.04, -2265.41, 0.000, 0.000, 0.000, 15:31:54.017
70, -2718.20, -2404.65, -2279.76, -2147.56, 0.000, 0.000, 0.000, 15:31:54.018
71, -2725.12, -2417.03, -2289.16, -2212.08, 0.000, 0.000, 0.000, 15:31:54.019
72, -2775.48, -2473.15, -2327.79, -2249.10, 0.000, 0.000, 0.000, 15:31:54.020
73, -2752.95, -2461.56, -2291.89, -2218.82, 0.000, 0.000, 0.000, 15:31:54.021
74, -2718.25, -2425.63, -2313.24, -2161.44, 0.000, 0.000, 0.000, 15:31:54.022
75, -2720.94, -2389.41, -2298.28, -2167.24, 0.000, 0.000, 0.000, 15:31:54.024
76, -2764.03, -2481.55, -2313.85, -2267.50, 0.000, 0.000, 0.000, 15:31:54.024
77, -2736.76, -2427.99, -2314.79, -2188.53, 0.000, 0.000, 0.000, 15:31:54.024
78, -2755.94, -2474.02, -2317.42, -2248.35, 0.000, 0.000, 0.000, 15:31:54.024
79, -2721.96, -2395.61, -2302.20, -2149.08, 0.000, 0.000, 0.000, 15:31:54.045
80, -2763.98, -2472.75, -2337.46, -2244.49, 0.000, 0.000, 0.000, 15:31:54.045
81, -2740.74, -2437.61, -2308.60, -2220.11, 0.000, 0.000, 0.000, 15:31:54.047
82, -2722.99, -2433.76, -2286.52, -2191.76, 0.000, 0.000, 0.000, 15:31:54.047
83, -2730.03, -2438.76, -2275.35, -2217.44, 0.000, 0.000, 0.000, 15:31:54.048
84, -2741.78, -2428.23, -2318.57, -2155.95, 0.000, 0.000, 0.000, 15:31:54.048
85, -2764.13, -2436.88, -2313.32, -2243.81, 0.000, 0.000, 0.000, 15:31:54.050
86, -2735.99, -2416.03, -2318.09, -2190.74, 0.000, 0.000, 0.000, 15:31:54.051
87, -2730.14, -2445.19, -2296.95, -2202.03, 0.000, 0.000, 0.000, 15:31:54.051
88, -2750.07, -2459.62, -2318.71, -2243.97, 0.000, 0.000, 0.000, 15:31:54.051
89, -2737.93, -2427.99, -2294.66, -2176.52, 0.000, 0.000, 0.000, 15:31:54.067
90, -2724.23, -2422.05, -2289.76, -2211.23, 0.000, 0.000, 0.000, 15:31:54.068
91, -2718.84, -2434.67, -2286.15, -2221.80, 0.000, 0.000, 0.000, 15:31:54.068
92, -2737.09, -2423.70, -2307.42, -2185.95, 0.000, 0.000, 0.000, 15:31:54.068
93, -2740.17, -2444.91, -2297.15, -2226.94, 0.000, 0.000, 0.000, 15:31:54.071
94, -2732.34, -2422.47, -2292.41, -2183.94, 0.000, 0.000, 0.000, 15:31:54.071
95, -2738.03, -2446.24, -2303.06, -2218.38, 0.000, 0.000, 0.000, 15:31:54.071
96, -2748.73, -2434.75, -2316.48, -2206.99, 0.000, 0.000, 0.000, 15:31:54.071
97, -2751.18, -2446.53, -2295.49, -2226.83, 0.000, 0.000, 0.000, 15:31:54.072
98, -2732.48, -2414.17, -2315.51, -2195.70, 0.000, 0.000, 0.000, 15:31:54.072
99, -2706.06, -2403.13, -2256.16, -2146.19, 0.000, 0.000, 0.000, 15:31:54.072
100, -2772.65, -2458.04, -2356.92, -2262.90, 0.000, 0.000, 0.000, 15:31:54.074
101, -2748.98, -2444.25, -2306.79, -2204.11, 0.000, 0.000, 0.000, 15:31:54.075
102, -2741.05, -2433.84, -2308.49, -2220.42, 0.000, 0.000, 0.000, 15:31:54.075
103, -2705.49, -2405.95, -2266.12, -2193.83, 0.000, 0.000, 0.000, 15:31:54.075
104, -2774.63, -2452.64, -2339.98, -2221.75, 0.000, 0.000, 0.000, 15:31:54.075
105, -2750.89, -2435.05, -2290.18, -2214.24, 0.000, 0.000, 0.000, 15:31:54.076
106, -2735.35, -2422.83, -2299.88, -2199.21, 0.000, 0.000, 0.000, 15:31:54.076
107, -2724.75, -2433.24, -2245.78, -2232.94, 0.000, 0.000, 0.000, 15:31:54.076
108, -2760.95, -2457.53, -2336.33, -2240.56, 0.000, 0.000, 0.000, 15:31:54.076
109, -2758.58, -2453.51, -2327.94, -2239.89, 0.000, 0.000, 0.000, 15:31:54.077
110, -2728.47, -2434.15, -2300.55, -2206.17, 0.000, 0.000, 0.000, 15:31:54.081
111, -2724.91, -2417.95, -2281.95, -2192.07, 0.000, 0.000, 0.000, 15:31:54.082
112, -2745.23, -2443.93, -2292.14, -2228.03, 0.000, 0.000, 0.000, 15:31:54.082
113, -2767.29, -2456.52, -2346.52, -2234.75, 0.000, 0.000, 0.000, 15:31:54.082
114, -2715.05, -2427.56, -2249.43, -2206.05, 0.000, 0.000, 0.000, 15:31:54.083
115, -2745.45, -2425.80, -2322.96, -2212.59, 0.000, 0.000, 0.000, 15:31:54.083
116, -2753.16, -2450.76, -2322.46, -2243.18, 0.000, 0.000, 0.000, 15:31:54.083
117, -2751.14, -2452.89, -2303.11, -2240.85, 0.000, 0.000, 0.000, 15:31:54.084
118, -2733.72, -2427.54, -2309.78, -2218.36, 0.000, 0.000, 0.000, 15:31:54.084
119, -2718.92, -2414.72, -2291.96, -2205.52, 0.000, 0.000, 0.000, 15:31:54.084
120, -2758.86, -2450.21, -2318.90, -2234.84, 0.000, 0.000, 0.000, 15:31:54.084
121, -2753.45, -2448.66, -2314.98, -2244.21, 0.000, 0.000, 0.000, 15:31:54.107
122, -2720.22, -2427.23, -2281.18, -2216.09, 0.000, 0.000, 0.000, 15:31:54.107
123, -2732.91, -2421.98, -2310.06, -2216.56, 0.000, 0.000, 0.000, 15:31:54.107
124, -2744.02, -2443.85, -2309.75, -2232.45, 0.000, 0.000, 0.000, 15:31:54.108
125, -2747.02, -2441.93, -2312.76, -2227.64, 0.000, 0.000, 0.000, 15:31:54.108
126, -2721.30, -2417.85, -2269.75, -2204.15, 0.000, 0.000, 0.000, 15:31:54.108
127, -2717.02, -2411.05, -2273.40, -2192.54, 0.000, 0.000, 0.000, 15:31:54.108
128, -2734.47, -2432.55, -2270.98, -2214.06, 0.000, 0.000, 0.000, 15:31:54.109
129, -2774.72, -2469.89, -2353.07, -2246.88, 0.000, 0.000, 0.000, 15:31:54.109
130, -2753.58, -2452.67, -2313.27, -2223.43, 0.000, 0.000, 0.000, 15:31:54.109
131, -2710.59, -2413.97, -2246.18, -2188.56, 0.000, 0.000, 0.000, 15:31:54.109
132, -2773.62, -2456.33, -2344.78, -2231.79, 0.000, 0.000, 0.000, 15:31:54.175
133, -2763.82, -2465.71, -2312.09, -2239.25, 0.000, 0.000, 0.000, 15:31:54.175
134, -2741.17, -2427.78, -2317.11, -2202.01, 0.000, 0.000, 0.000, 15:31:54.175
135, -2729.17, -2425.31, -2290.08, -2195.47, 0.000, 0.000, 0.000, 15:31:54.176
136, -2757.61, -2444.41, -2320.50, -2210.99, 0.000, 0.000, 0.000, 15:31:54.176
137, -2742.71, -2447.48, -2304.80, -2213.39, 0.000, 0.000, 0.000, 15:31:54.176
138, -2740.00, -2429.10, -2305.10, -2202.06, 0.000, 0.000, 0.000, 15:31:54.176
139, -2714.88, -2406.12, -2269.15, -2182.49, 0.000, 0.000, 0.000, 15:31:54.176
140, -2741.21, -2435.57, -2311.68, -2207.82, 0.000, 0.000, 0.000, 15:31:54.177
141, -2742.92, -2446.02, -2296.82, -2230.21, 0.000, 0.000, 0.000, 15:31:54.177
142, -2729.13, -2418.60, -2289.83, -2203.29, 0.000, 0.000, 0.000, 15:31:54.177
143, -2719.18, -2419.30, -2269.95, -2198.90, 0.000, 0.000, 0.000, 15:31:54.177
144, -2770.89, -2454.27, -2329.14, -2232.32, 0.000, 0.000, 0.000, 15:31:54.178
145, -2752.38, -2447.19, -2310.09, -2227.96, 0.000, 0.000, 0.000, 15:31:54.178
146, -2750.80, -2441.92, -2322.11, -2213.16, 0.000, 0.000, 0.000, 15:31:54.178
147, -2733.44, -2429.45, -2296.97, -2194.59, 0.000, 0.000, 0.000, 15:31:54.178
148, -2749.35, -2449.41, -2309.58, -2220.17, 0.000, 0.000, 0.000, 15:31:54.178
149, -2768.59, -2456.88, -2316.82, -2226.12, 0.000, 0.000, 0.000, 15:31:54.179
150, -2735.83, -2432.78, -2277.52, -2206.86, 0.000, 0.000, 0.000, 15:31:54.179
151, -2714.63, -2402.63, -2282.02, -2174.11, 0.000, 0.000, 0.000, 15:31:54.179
152, -2746.73, -2436.63, -2315.32, -2211.11, 0.000, 0.000, 0.000, 15:31:54.179
153, -2753.50, -2457.43, -2303.64, -2228.19, 0.000, 0.000, 0.000, 15:31:54.180
154, -2745.86, -2440.02, -2298.53, -2217.73, 0.000, 0.000, 0.000, 15:31:54.180
155, -2720.90, -2416.59, -2258.63, -2181.79, 0.000, 0.000, 0.000, 15:31:54.180
156, -2769.72, -2456.41, -2364.20, -2241.70, 0.000, 0.000, 0.000, 15:31:54.180
157, -2761.48, -2451.30, -2313.14, -2223.05, 0.000, 0.000, 0.000, 15:31:54.180
158, -2737.78, -2430.16, -2299.62, -2211.60, 0.000, 0.000, 0.000, 15:31:54.181
159, -2711.30, -2396.80, -2287.67, -2171.00, 0.000, 0.000, 0.000, 15:31:54.181
160, -2756.80, -2453.87, -2314.75, -2224.03, 0.000, 0.000, 0.000, 15:31:54.181
161, -2744.14, -2444.73, -2307.84, -2208.43, 0.000, 0.000, 0.000, 15:31:54.181
162, -2710.83, -2419.50, -2252.65, -2173.42, 0.000, 0.000, 0.000, 15:31:54.181
163, -2718.86, -2403.92, -2291.92, -2178.38, 0.000, 0.000, 0.000, 15:31:54.182
164, -2749.13, -2456.31, -2307.50, -2216.09, 0.000, 0.000, 0.000, 15:31:54.182
165, -2750.59, -2452.48, -2312.18, -2212.74, 0.000, 0.000, 0.000, 15:31:54.182
166, -2730.93, -2420.70, -2277.07, -2188.80, 0.000, 0.000, 0.000, 15:31:54.182
167, -2708.61, -2401.66, -2258.53, -2140.99, 0.000, 0.000, 0.000, 15:31:54.183
168, -2762.51, -2456.56, -2330.49, -2214.15, 0.000, 0.000, 0.000, 15:31:54.183
169, -2768.27, -2459.63, -2330.27, -2219.09, 0.000, 0.000, 0.000, 15:31:54.183
170, -2745.43, -2437.08, -2302.79, -2189.22, 0.000, 0.000, 0.000, 15:31:54.183
171, -2721.98, -2406.03, -2271.95, -2162.53, 0.000, 0.000, 0.000, 15:31:54.183
172, -2764.53, -2448.81, -2328.02, -2218.99, 0.000, 0.000, 0.000, 15:31:54.186
173, -2773.34, -2460.78, -2326.39, -2233.74, 0.000, 0.000, 0.000, 15:31:54.186
174, -2745.57, -2436.00, -2290.15, -2202.46, 0.000, 0.000, 0.000, 15:31:54.186
175, -2720.35, -2406.69, -2280.49, -2156.36, 0.000, 0.000, 0.000, 15:31:54.186
176, -2738.21, -2434.13, -2292.62, -2177.55, 0.000, 0.000, 0.000, 15:31:54.187
177, -2755.19, -2449.35, -2315.09, -2225.90, 0.000, 0.000, 0.000, 15:31:54.187
178, -2754.86, -2457.10, -2324.03, -2244.69, 0.000, 0.000, 0.000, 15:31:54.187
179, -2697.86, -2386.94, -2257.04, -2129.38, 0.000, 0.000, 0.000, 15:31:54.187
180, -2761.75, -2446.25, -2317.70, -2235.31, 0.000, 0.000, 0.000, 15:31:54.188
181, -2742.58, -2429.05, -2268.71, -2185.49, 0.000, 0.000, 0.000, 15:31:54.188
182, -2750.82, -2449.73, -2331.68, -2234.52, 0.000, 0.000, 0.000, 15:31:54.188
183, -2723.00, -2400.63, -2286.33, -2167.74, 0.000, 0.000, 0.000, 15:31:54.188
184, -2752.93, -2457.63, -2316.20, -2191.55, 0.000, 0.000, 0.000, 15:31:54.189
185, -2763.18, -2455.31, -2320.77, -2230.08, 0.000, 0.000, 0.000, 15:31:54.189
186, -2748.68, -2439.90, -2309.65, -2221.43, 0.000, 0.000, 0.000, 15:31:54.189
187, -2720.79, -2404.88, -2274.94, -2191.18, 0.000, 0.000, 0.000, 15:31:54.189
188, -2737.00, -2437.99, -2303.66, -2214.04, 0.000, 0.000, 0.000, 15:31:54.190
189, -2741.42, -2432.55, -2298.52, -2210.55, 0.000, 0.000, 0.000, 15:31:54.190
190, -2737.94, -2428.27, -2295.13, -2200.37, 0.000, 0.000, 0.000, 15:31:54.190
191, -2695.34, -2387.80, -2253.57, -2133.28, 0.000, 0.000, 0.000, 15:31:54.190
192, -2738.78, -2441.25, -2302.18, -2227.07, 0.000, 0.000, 0.000, 15:31:54.191
193, -2758.94, -2446.49, -2316.29, -2224.89, 0.000, 0.000, 0.000, 15:31:54.191
194, -2734.22, -2428.22, -2284.87, -2204.59, 0.000, 0.000, 0.000, 15:31:54.191
195, -2725.21, -2419.40, -2279.20, -2198.27, 0.000, 0.000, 0.000, 15:31:54.191
196, -2752.72, -2449.17, -2310.80, -2220.80, 0.000, 0.000, 0.000, 15:31:54.192
197, -2763.66, -2459.90, -2322.24, -2234.06, 0.000, 0.000, 0.000, 15:31:54.192
198, -2754.50, -2446.33, -2312.99, -2220.17, 0.000, 0.000, 0.000, 15:31:54.192
199, -2716.81, -2402.89, -2276.73, -2116.88, 0.000, 0.000, 0.000, 15:31:54.192
200, -2765.26, -2464.93, -2316.70, -2264.97, 0.000, 0.000, 0.000, 15:31:54.192
0, -2766.38, -2446.34, -2318.23, -2230.31, 0.000, 0.000, 0.000, 15:31:54.193
1, -2755.12, -2445.23, -2304.60, -2212.07, 0.000, 0.000, 0.000, 15:31:54.193
2, -2726.79, -2413.62, -2287.71, -2204.93, 0.000, 0.000, 0.000, 15:31:54.193
3, -2739.54, -2436.54, -2288.42, -2203.33, 0.000, 0.000, 0.000, 15:31:54.193
4, -2752.48, -2441.39, -2295.98, -2210.71, 0.000, 0.000, 0.000, 15:31:54.194
5, -2753.90, -2444.03, -2307.91, -2215.42, 0.000, 0.000, 0.000, 15:31:54.194
6, -2721.74, -2410.87, -2274.54, -2174.54, 0.000, 0.000, 0.000, 15:31:54.194
7, -2756.31, -2454.00, -2317.51, -2227.73, 0.000, 0.000, 0.000, 15:31:54.194
8, -2744.07, -2440.56, -2291.55, -2162.93, 0.000, 0.000, 0.000, 15:31:54.194
9, -2743.24, -2434.70, -2292.44, -2182.06, 0.000, 0.000, 0.000, 15:31:54.195
10, -2717.29, -2384.56, -2275.25, -2165.62, 0.000, 0.000, 0.000, 15:31:54.195
11, -2779.90, -2494.33, -2334.86, -2288.63, 0.000, 0.000, 0.000, 15:31:54.195
12, -2767.21, -2471.94, -2331.38, -2248.17, 0.000, 0.000, 0.000, 15:31:54.195
13, -2750.90, -2444.99, -2309.35, -2217.34, 0.000, 0.000, 0.000, 15:31:54.196
14, -2724.61, -2407.95, -2282.83, -2189.97, 0.000, 0.000, 0.000, 15:31:54.196
15, -2750.56, -2445.73, -2312.74, -2215.11, 0.000, 0.000, 0.000, 15:31:54.196
16, -2761.67, -2460.39, -2320.41, -2243.27, 0.000, 0.000, 0.000, 15:31:54.196
17, -2725.16, -2426.02, -2289.81, -2204.18, 0.000, 0.000, 0.000, 15:31:54.198
18, -2705.21, -2398.01, -2270.94, -2174.64, 0.000, 0.000, 0.000, 15:31:54.199
19, -2727.89, -2433.38, -2289.91, -2185.95, 0.000, 0.000, 0.000, 15:31:54.199
20, -2779.16, -2476.61, -2337.41, -2252.03, 0.000, 0.000, 0.000, 15:31:54.199
21, -2752.13, -2463.96, -2305.86, -2240.15, 0.000, 0.000, 0.000, 15:31:54.200
22, -2715.18, -2415.25, -2272.77, -2178.29, 0.000, 0.000, 0.000, 15:31:54.201
23, -2739.18, -2440.32, -2297.34, -2193.69, 0.000, 0.000, 0.000, 15:31:54.624
24, -2742.09, -2444.91, -2295.80, -2202.06, 0.000, 0.000, 0.000, 15:31:54.624
25, -2738.06, -2436.29, -2291.45, -2204.15, 0.000, 0.000, 0.000, 15:31:54.625
26, -2708.53, -2400.62, -2260.41, -2178.80, 0.000, 0.000, 0.000, 15:31:54.625
27, -2726.92, -2422.92, -2279.78, -2165.74, 0.000, 0.000, 0.000, 15:31:54.733
28, -2769.59, -2470.72, -2317.57, -2249.75, 0.000, 0.000, 0.000, 15:31:54.734
29, -2740.71, -2432.69, -2288.16, -2181.92, 0.000, 0.000, 0.000, 15:31:54.734
30, -2711.63, -2397.57, -2259.76, -2147.33, 0.000, 0.000, 0.000, 15:31:54.734
31, -2748.17, -2450.22, -2301.22, -2227.53, 0.000, 0.000, 0.000, 15:31:54.734
32, -2762.57, -2450.54, -2313.37, -2227.50, 0.000, 0.000, 0.000, 15:31:54.735
33, -2724.77, -2410.85, -2283.82, -2168.77, 0.000, 0.000, 0.000, 15:31:54.735
34, -2718.53, -2415.25, -2280.12, -2178.30, 0.000, 0.000, 0.000, 15:31:54.735
35, -2769.71, -2469.87, -2327.08, -2285.41, 0.000, 0.000, 0.000, 15:31:54.735
36, -2777.85, -2472.89, -2329.46, -2252.94, 0.000, 0.000, 0.000, 15:31:54.735
37, -2745.19, -2438.53, -2306.47, -2206.70, 0.000, 0.000, 0.000, 15:31:54.736
38, -2730.46, -2441.77, -2292.18, -2200.17, 0.000, 0.000, 0.000, 15:31:54.736
39, -2759.55, -2458.74, -2323.65, -2233.52, 0.000, 0.000, 0.000, 15:31:54.736
40, -2760.90, -2461.42, -2323.83, -2230.05, 0.000, 0.000, 0.000, 15:31:54.736
41, -2729.10, -2419.52, -2287.94, -2189.07, 0.000, 0.000, 0.000, 15:31:54.736
42, -2711.00, -2398.88, -2267.11, -2147.41, 0.000, 0.000, 0.000, 15:31:54.737
43, -2747.97, -2446.77, -2305.34, -2247.09, 0.000, 0.000, 0.000, 15:31:54.737
44, -2757.53, -2455.81, -2306.52, -2215.10, 0.000, 0.000, 0.000, 15:31:54.737
45, -2723.33, -2407.85, -2274.14, -2162.65, 0.000, 0.000, 0.000, 15:31:54.737
46, -2713.06, -2417.75, -2261.96, -2179.33, 0.000, 0.000, 0.000, 15:31:54.738
47, -2753.32, -2452.21, -2306.43, -2220.71, 0.000, 0.000, 0.000, 15:31:54.738
48, -2759.88, -2458.92, -2320.64, -2217.57, 0.000, 0.000, 0.000, 15:31:54.738
49, -2743.82, -2439.42, -2300.91, -2208.58, 0.000, 0.000, 0.000, 15:31:54.738
50, -2709.59, -2409.44, -2272.66, -2170.88, 0.000, 0.000, 0.000, 15:31:54.738
51, -2750.91, -2441.83, -2308.39, -2225.06, 0.000, 0.000, 0.000, 15:31:54.739
52, -2773.89, -2454.17, -2336.12, -2240.37, 0.000, 0.000, 0.000, 15:31:54.739
53, -2738.35, -2432.97, -2299.48, -2219.02, 0.000, 0.000, 0.000, 15:31:54.739
54, -2724.47, -2413.19, -2289.72, -2200.35, 0.000, 0.000, 0.000, 15:31:54.739
55, -2726.76, -2419.89, -2288.97, -2186.85, 0.000, 0.000, 0.000, 15:31:54.739
56, -2761.53, -2459.80, -2327.56, -2206.41, 0.000, 0.000, 0.000, 15:31:54.740
57, -2745.10, -2438.08, -2316.46, -2209.29, 0.000, 0.000, 0.000, 15:31:54.740
58, -2716.84, -2418.04, -2283.84, -2164.18, 0.000, 0.000, 0.000, 15:31:54.740
59, -2739.42, -2430.81, -2314.07, -2208.37, 0.000, 0.000, 0.000, 15:31:54.740
60, -2754.22, -2452.97, -2320.81, -2237.69, 0.000, 0.000, 0.000, 15:31:54.741
61, -2750.86, -2449.40, -2319.77, -2229.95, 0.000, 0.000, 0.000, 15:31:54.741
62, -2696.87, -2360.68, -2251.68, -2119.18, 0.000, 0.000, 0.000, 15:31:54.741
63, -2754.45, -2476.67, -2318.12, -2251.16, 0.000, 0.000, 0.000, 15:31:54.741
64, -2761.56, -2451.44, -2310.54, -2217.29, 0.000, 0.000, 0.000, 15:31:54.741
65, -2748.38, -2448.13, -2304.94, -2220.18, 0.000, 0.000, 0.000, 15:31:54.742
66, -2724.73, -2419.57, -2280.71, -2192.83, 0.000, 0.000, 0.000, 15:31:54.742
67, -2734.79, -2434.65, -2295.40, -2210.34, 0.000, 0.000, 0.000, 15:31:54.742
68, -2760.42, -2462.54, -2319.68, -2219.13, 0.000, 0.000, 0.000, 15:31:54.742
69, -2750.89, -2437.28, -2311.17, -2204.76, 0.000, 0.000, 0.000, 15:31:54.786
70, -2741.72, -2434.05, -2298.78, -2220.39, 0.000, 0.000, 0.000, 15:31:54.787
71, -2744.61, -2437.51, -2301.29, -2201.88, 0.000, 0.000, 0.000, 15:31:54.787
72, -2748.99, -2452.18, -2311.69, -2201.05, 0.000, 0.000, 0.000, 15:31:54.787
73, -2745.04, -2447.09, -2316.91, -2233.23, 0.000, 0.000, 0.000, 15:31:54.787
74, -2723.41, -2427.28, -2299.11, -2200.13, 0.000, 0.000, 0.000, 15:31:54.787
75, -2737.65, -2429.34, -2301.72, -2209.89, 0.000, 0.000, 0.000, 15:31:54.788
76, -2757.55, -2456.02, -2324.71, -2225.13, 0.000, 0.000, 0.000, 15:31:54.788
77, -2739.28, -2430.22, -2307.70, -2203.23, 0.000, 0.000, 0.000, 15:31:54.788
78, -2720.46, -2415.44, -2285.18, -2189.07, 0.000, 0.000, 0.000, 15:31:54.788
79, -2729.00, -2431.62, -2302.41, -2208.66, 0.000, 0.000, 0.000, 15:31:54.788
80, -2743.27, -2441.96, -2296.79, -2204.17, 0.000, 0.000, 0.000, 15:31:54.788
81, -2732.83, -2436.69, -2291.33, -2199.60, 0.000, 0.000, 0.000, 15:31:54.789
82, -2732.50, -2442.80, -2293.13, -2229.13, 0.000, 0.000, 0.000, 15:31:54.789
83, -2721.31, -2431.13, -2280.70, -2175.15, 0.000, 0.000, 0.000, 15:31:54.789
84, -2764.02, -2462.98, -2327.87, -2230.21, 0.000, 0.000, 0.000, 15:31:54.789
85, -2751.68, -2459.46, -2311.20, -2245.09, 0.000, 0.000, 0.000, 15:31:54.789
86, -2722.66, -2420.16, -2282.35, -2184.51, 0.000, 0.000, 0.000, 15:31:54.790
87, -2732.17, -2430.51, -2292.22, -2193.83, 0.000, 0.000, 0.000, 15:31:54.790
88, -2763.74, -2456.34, -2326.96, -2230.78, 0.000, 0.000, 0.000, 15:31:54.790
89, -2757.82, -2461.22, -2323.62, -2238.01, 0.000, 0.000, 0.000, 15:31:54.790
90, -2724.46, -2425.90, -2286.08, -2185.68, 0.000, 0.000, 0.000, 15:31:54.790
91, -2736.09, -2430.41, -2305.67, -2207.29, 0.000, 0.000, 0.000, 15:31:54.790
92, -2756.53, -2456.99, -2318.59, -2222.00, 0.000, 0.000, 0.000, 15:31:54.790
93, -2743.75, -2448.85, -2317.35, -2224.91, 0.000, 0.000, 0.000, 15:31:54.791
94, -2715.98, -2428.94, -2284.51, -2196.72, 0.000, 0.000, 0.000, 15:31:54.791
95, -2735.18, -2435.18, -2299.37, -2198.09, 0.000, 0.000, 0.000, 15:31:54.791
96, -2761.46, -2463.74, -2326.87, -2227.88, 0.000, 0.000, 0.000, 15:31:54.791
97, -2744.94, -2436.02, -2315.77, -2210.15, 0.000, 0.000, 0.000, 15:31:54.791
98, -2721.81, -2425.23, -2293.10, -2199.81, 0.000, 0.000, 0.000, 15:31:54.791
99, -2736.09, -2433.36, -2292.60, -2199.30, 0.000, 0.000, 0.000, 15:31:54.792
100, -2759.27, -2458.15, -2323.20, -2228.08, 0.000, 0.000, 0.000, 15:31:54.792
101, -2741.84, -2435.27, -2299.28, -2217.95, 0.000, 0.000, 0.000, 15:31:54.792
102, -2708.58, -2406.23, -2269.83, -2186.07, 0.000, 0.000, 0.000, 15:31:54.792
103, -2706.48, -2415.12, -2273.84, -2203.26, 0.000, 0.000, 0.000, 15:31:54.792
104, -2741.36, -2442.88, -2289.06, -2231.46, 0.000, 0.000, 0.000, 15:31:54.792
105, -2722.42, -2432.23, -2307.31, -2212.96, 0.000, 0.000, 0.000, 15:31:54.793
106, -2712.19, -2409.97, -2299.48, -2193.99, 0.000, 0.000, 0.000, 15:31:54.793
107, -2707.35, -2411.74, -2259.80, -2198.89, 0.000, 0.000, 0.000, 15:31:54.793
108, -2720.91, -2434.20, -2259.85, -2220.51, 0.000, 0.000, 0.000, 15:31:54.793
109, -2747.48, -2439.15, -2358.10, -2225.14, 0.000, 0.000, 0.000, 15:31:54.793
110, -2710.41, -2408.60, -2235.92, -2189.88, 0.000, 0.000, 0.000, 15:31:54.793
111, -2741.83, -2424.32, -2336.18, -2200.56, 0.000, 0.000, 0.000, 15:31:54.793
112, -2706.99, -2440.25, -2232.83, -2213.95, 0.000, 0.000, 0.000, 15:31:54.794
113, -2783.46, -2454.93, -2400.81, -2227.54, 0.000, 0.000, 0.000, 15:31:54.794
114, -2721.64, -2420.03, -2309.31, -2188.33, 0.000, 0.000, 0.000, 15:31:54.794
115, -2725.50, -2426.03, -2301.59, -2189.57, 0.000, 0.000, 0.000, 15:31:54.794
116, -2744.04, -2456.81, -2311.89, -2226.17, 0.000, 0.000, 0.000, 15:31:54.794
117, -2731.06, -2444.42, -2278.51, -2198.72, 0.000, 0.000, 0.000, 15:31:54.794
118, -2715.17, -2426.58, -2281.38, -2186.38, 0.000, 0.000, 0.000, 15:31:54.794
119, -2691.32, -2419.28, -2199.25, -2185.00, 0.000, 0.000, 0.000, 15:31:54.795
120, -2755.74, -2470.94, -2313.60, -2228.31, 0.000, 0.000, 0.000, 15:31:54.795
121, -2755.84, -2453.78, -2332.47, -2220.80, 0.000, 0.000, 0.000, 15:31:54.795
122, -2740.27, -2436.37, -2276.42, -2206.52, 0.000, 0.000, 0.000, 15:31:54.795
123, -2743.26, -2449.93, -2313.30, -2213.07, 0.000, 0.000, 0.000, 15:31:54.795
124, -2747.98, -2468.00, -2316.92, -2226.29, 0.000, 0.000, 0.000, 15:31:54.795
125, -2769.23, -2455.70, -2329.09, -2222.20, 0.000, 0.000, 0.000, 15:31:54.796
126, -2728.73, -2416.68, -2299.25, -2191.25, 0.000, 0.000, 0.000, 15:31:54.796
127, -2743.34, -2436.58, -2300.24, -2207.75, 0.000, 0.000, 0.000, 15:31:54.796
128, -2767.83, -2460.26, -2341.21, -2227.84, 0.000, 0.000, 0.000, 15:31:54.796
129, -2748.96, -2447.92, -2316.49, -2216.23, 0.000, 0.000, 0.000, 15:31:54.796
130, -2743.44, -2424.08, -2306.13, -2185.69, 0.000, 0.000, 0.000, 15:31:54.796
131, -2711.20, -2420.73, -2247.12, -2193.44, 0.000, 0.000, 0.000, 15:31:54.797
132, -2761.06, -2453.35, -2314.38, -2225.19, 0.000, 0.000, 0.000, 15:31:54.797
133, -2759.30, -2440.42, -2343.37, -2205.26, 0.000, 0.000, 0.000, 15:31:54.797
134, -2712.83, -2420.29, -2237.62, -2185.21, 0.000, 0.000, 0.000, 15:31:54.797
135, -2759.14, -2440.71, -2329.74, -2219.09, 0.000, 0.000, 0.000, 15:31:54.797
136, -2766.73, -2450.62, -2357.61, -2217.77, 0.000, 0.000, 0.000, 15:31:54.797
137, -2724.74, -2436.51, -2301.22, -2210.49, 0.000, 0.000, 0.000, 15:31:54.797
138, -2742.43, -2426.43, -2319.55, -2195.93, 0.000, 0.000, 0.000, 15:31:54.798
139, -2739.16, -2432.45, -2304.29, -2213.03, 0.000, 0.000, 0.000, 15:31:54.798
140, -2737.60, -2454.59, -2284.90, -2220.19, 0.000, 0.000, 0.000, 15:31:54.798
141, -2769.79, -2454.58, -2345.78, -2223.86, 0.000, 0.000, 0.000, 15:31:54.798
142, -2726.59, -2428.28, -2288.38, -2197.21, 0.000, 0.000, 0.000, 15:31:54.798
143, -2726.15, -2434.63, -2284.49, -2210.42, 0.000, 0.000, 0.000, 15:31:54.798
144, -2740.78, -2464.04, -2277.20, -2232.84, 0.000, 0.000, 0.000, 15:31:54.798
145, -2764.39, -2455.70, -2327.14, -2220.12, 0.000, 0.000, 0.000, 15:31:54.918
146, -2720.72, -2416.95, -2269.63, -2175.53, 0.000, 0.000, 0.000, 15:31:54.918
147, -2738.47, -2435.52, -2301.71, -2202.15, 0.000, 0.000, 0.000, 15:31:54.919
148, -2779.16, -2471.71, -2350.18, -2244.43, 0.000, 0.000, 0.000, 15:31:54.919
149, -2755.13, -2454.59, -2314.23, -2215.84, 0.000, 0.000, 0.000, 15:31:54.954
150, -2739.59, -2448.32, -2286.91, -2207.46, 0.000, 0.000, 0.000, 15:31:54.954
151, -2727.59, -2426.04, -2302.94, -2203.56, 0.000, 0.000, 0.000, 15:31:54.955
152, -2754.31, -2457.81, -2310.58, -2210.08, 0.000, 0.000, 0.000, 15:31:54.955
153, -2744.45, -2448.51, -2270.48, -2232.48, 0.000, 0.000, 0.000, 15:31:54.956
154, -2730.48, -2427.38, -2314.14, -2204.28, 0.000, 0.000, 0.000, 15:31:54.956
155, -2731.09, -2426.75, -2298.30, -2204.93, 0.000, 0.000, 0.000, 15:31:54.957
156, -2745.26, -2455.53, -2328.38, -2231.88, 0.000, 0.000, 0.000, 15:31:54.957
157, -2733.78, -2451.37, -2288.11, -2234.42, 0.000, 0.000, 0.000, 15:31:54.957
158, -2734.86, -2428.15, -2288.91, -2211.08, 0.000, 0.000, 0.000, 15:31:54.958
159, -2722.34, -2431.64, -2279.83, -2206.08, 0.000, 0.000, 0.000, 15:31:54.958
160, -2778.19, -2473.97, -2361.80, -2241.91, 0.000, 0.000, 0.000, 15:31:54.959
161, -2753.97, -2460.24, -2311.88, -2223.66, 0.000, 0.000, 0.000, 15:31:54.959
162, -2743.07, -2440.28, -2303.05, -2202.78, 0.000, 0.000, 0.000, 15:31:54.959
163, -2711.78, -2423.40, -2246.28, -2188.59, 0.000, 0.000, 0.000, 15:31:54.960
164, -2769.41, -2458.71, -2321.32, -2225.08, 0.000, 0.000, 0.000, 15:31:54.960
165, -2755.64, -2447.17, -2335.91, -2183.19, 0.000, 0.000, 0.000, 15:31:54.961
166, -2744.07, -2453.74, -2300.57, -2249.78, 0.000, 0.000, 0.000, 15:31:54.962
167, -2722.50, -2431.22, -2262.78, -2200.13, 0.000, 0.000, 0.000, 15:31:54.963
168, -2757.02, -2452.59, -2333.02, -2198.80, 0.000, 0.000, 0.000, 15:31:54.963
169, -2753.28, -2455.39, -2308.74, -2224.85, 0.000, 0.000, 0.000, 15:31:54.965
170, -2725.12, -2428.45, -2236.90, -2210.74, 0.000, 0.000, 0.000, 15:31:54.965
171, -2736.64, -2453.41, -2316.30, -2212.42, 0.000, 0.000, 0.000, 15:31:54.966
172, -2769.08, -2472.48, -2359.27, -2244.30, 0.000, 0.000, 0.000, 15:31:54.966
173, -2752.97, -2451.27, -2305.02, -2227.50, 0.000, 0.000, 0.000, 15:31:54.966
174, -2722.06, -2424.33, -2291.97, -2199.97, 0.000, 0.000, 0.000, 15:31:54.967
175, -2732.07, -2431.06, -2310.81, -2208.35, 0.000, 0.000, 0.000, 15:31:54.967
176, -2754.98, -2456.75, -2313.42, -2222.45, 0.000, 0.000, 0.000, 15:31:54.967
177, -2744.71, -2437.08, -2324.06, -2187.49, 0.000, 0.000, 0.000, 15:31:54.967
178, -2730.11, -2423.23, -2286.07, -2202.85, 0.000, 0.000, 0.000, 15:31:54.967
179, -2723.03, -2410.18, -2292.96, -2191.97, 0.000, 0.000, 0.000, 15:31:54.968
180, -2757.87, -2460.84, -2317.35, -2216.48, 0.000, 0.000, 0.000, 15:31:54.968
181, -2747.69, -2445.00, -2304.75, -2236.27, 0.000, 0.000, 0.000, 15:31:54.968
182, -2722.62, -2422.02, -2280.08, -2191.59, 0.000, 0.000, 0.000, 15:31:54.969
183, -2716.10, -2416.96, -2257.89, -2196.78, 0.000, 0.000, 0.000, 15:31:54.976
184, -2754.29, -2453.86, -2332.39, -2229.08, 0.000, 0.000, 0.000, 15:31:54.977
185, -2743.62, -2441.16, -2309.71, -2221.50, 0.000, 0.000, 0.000, 15:31:54.977
186, -2721.91, -2411.37, -2277.44, -2153.82, 0.000, 0.000, 0.000, 15:31:54.977
187, -2748.32, -2456.35, -2314.92, -2236.35, 0.000, 0.000, 0.000, 15:31:54.978
188, -2767.03, -2476.05, -2338.46, -2253.01, 0.000, 0.000, 0.000, 15:31:54.978
189, -2747.29, -2456.34, -2295.37, -2225.33, 0.000, 0.000, 0.000, 15:31:54.979
190, -2758.30, -2449.03, -2331.72, -2241.67, 0.000, 0.000, 0.000, 15:31:54.979
191, -2723.34, -2407.50, -2294.50, -2178.27, 0.000, 0.000, 0.000, 15:31:54.979
192, -2769.56, -2469.45, -2294.87, -2247.95, 0.000, 0.000, 0.000, 15:31:54.980
193, -2772.58, -2458.13, -2371.27, -2246.63, 0.000, 0.000, 0.000, 15:31:54.983
194, -2729.61, -2427.34, -2291.13, -2204.89, 0.000, 0.000, 0.000, 15:31:54.984
195, -2717.11, -2426.48, -2284.72, -2180.69, 0.000, 0.000, 0.000, 15:31:55.006
196, -2763.25, -2457.84, -2318.84, -2242.56, 0.000, 0.000, 0.000, 15:31:55.006
197, -2750.70, -2444.01, -2329.97, -2218.08, 0.000, 0.000, 0.000, 15:31:55.007
198, -2734.67, -2428.26, -2311.31, -2196.19, 0.000, 0.000, 0.000, 15:31:55.008
199, -2700.11, -2396.58, -2272.24, -2183.60, 0.000, 0.000, 0.000, 15:31:55.011
200, -2766.00, -2462.70, -2324.49, -2247.34, 0.000, 0.000, 0.000, 15:31:55.011
0, -2749.89, -2440.85, -2317.25, -2239.20, 0.000, 0.000, 0.000, 15:31:55.012
1, -2717.27, -2403.31, -2286.87, -2174.19, 0.000, 0.000, 0.000, 15:31:55.026
2, -2711.94, -2415.10, -2282.24, -2166.95, 0.000, 0.000, 0.000, 15:31:55.026
3, -2756.25, -2469.59, -2305.82, -2279.41, 0.000, 0.000, 0.000, 15:31:55.041
4, -2750.50, -2467.41, -2325.79, -2248.00, 0.000, 0.000, 0.000, 15:31:55.041
5, -2718.25, -2426.70, -2294.58, -2187.59, 0.000, 0.000, 0.000, 15:31:55.046
6, -2718.69, -2418.32, -2290.72, -2192.10, 0.000, 0.000, 0.000, 15:31:55.046
7, -2734.98, -2434.85, -2310.28, -2218.51, 0.000, 0.000, 0.000, 15:31:55.195
8, -2752.64, -2455.25, -2323.24, -2232.52, 0.000, 0.000, 0.000, 15:31:55.195
9, -2702.55, -2408.90, -2271.50, -2169.00, 0.000, 0.000, 0.000, 15:31:55.208
10, -2709.22, -2409.75, -2280.56, -2179.26, 0.000, 0.000, 0.000, 15:31:55.208
11, -2759.98, -2455.74, -2336.49, -2285.49, 0.000, 0.000, 0.000, 15:31:55.208
12, -2763.73, -2496.84, -2342.97, -2279.42, 0.000, 0.000, 0.000, 15:31:55.208
13, -2708.23, -2397.24, -2275.61, -2132.47, 0.000, 0.000, 0.000, 15:31:55.214
14, -2752.03, -2468.63, -2316.47, -2272.51, 0.000, 0.000, 0.000, 15:31:55.215
15, -2762.54, -2474.02, -2331.47, -2277.29, 0.000, 0.000, 0.000, 15:31:55.215
16, -2748.22, -2454.23, -2321.39, -2244.26, 0.000, 0.000, 0.000, 15:31:55.215
17, -2741.71, -2445.13, -2312.98, -2260.95, 0.000, 0.000, 0.000, 15:31:55.216
18, -2699.77, -2403.24, -2268.52, -2163.87, 0.000, 0.000, 0.000, 15:31:55.217
19, -2751.79, -2446.81, -2316.02, -2231.03, 0.000, 0.000, 0.000, 15:31:55.288
20, -2779.09, -2500.85, -2343.45, -2306.21, 0.000, 0.000, 0.000, 15:31:55.290
21, -2717.87, -2416.42, -2282.74, -2207.69, 0.000, 0.000, 0.000, 15:31:55.302
22, -2726.06, -2434.64, -2287.52, -2195.55, 0.000, 0.000, 0.000, 15:31:55.303
23, -2760.62, -2471.04, -2322.51, -2267.74, 0.000, 0.000, 0.000, 15:31:55.303
24, -2745.54, -2443.40, -2306.76, -2232.13, 0.000, 0.000, 0.000, 15:31:55.303
25, -2718.93, -2422.87, -2284.22, -2203.94, 0.000, 0.000, 0.000, 15:31:55.330
26, -2708.24, -2426.54, -2272.60, -2198.74, 0.000, 0.000, 0.000, 15:31:55.331
27, -2737.91, -2448.15, -2295.32, -2184.45, 0.000, 0.000, 0.000, 15:31:55.451
28, -2748.89, -2456.46, -2314.83, -2257.17, 0.000, 0.000, 0.000, 15:31:55.451
29, -2735.37, -2444.06, -2293.99, -2232.57, 0.000, 0.000, 0.000, 15:31:55.452
30, -2724.89, -2431.18, -2282.95, -2214.06, 0.000, 0.000, 0.000, 15:31:55.452
31, -2730.30, -2432.83, -2292.77, -2190.11, 0.000, 0.000, 0.000, 15:31:55.458
32, -2748.33, -2458.64, -2283.18, -2215.96, 0.000, 0.000, 0.000, 15:31:55.459
33, -2739.01, -2457.92, -2298.59, -2224.19, 0.000, 0.000, 0.000, 15:31:55.514
34, -2731.51, -2417.75, -2289.57, -2195.99, 0.000, 0.000, 0.000, 15:31:55.515
35, -2770.77, -2481.41, -2321.02, -2278.76, 0.000, 0.000, 0.000, 15:31:55.515
36, -2764.66, -2450.11, -2315.08, -2242.13, 0.000, 0.000, 0.000, 15:31:55.516
37, -2741.98, -2443.70, -2298.76, -2224.67, 0.000, 0.000, 0.000, 15:31:55.527
38, -2711.56, -2407.72, -2267.39, -2180.09, 0.000, 0.000, 0.000, 15:31:55.528
39, -2749.10, -2440.28, -2303.09, -2200.96, 0.000, 0.000, 0.000, 15:31:55.615
40, -2761.35, -2452.81, -2314.17, -2229.98, 0.000, 0.000, 0.000, 15:31:55.615
41, -2743.64, -2434.54, -2286.85, -2226.94, 0.000, 0.000, 0.000, 15:31:55.616
42, -2730.30, -2422.59, -2284.32, -2172.62, 0.000, 0.000, 0.000, 15:31:55.616
43, -2758.84, -2461.37, -2314.98, -2238.84, 0.000, 0.000, 0.000, 15:31:55.637
44, -2769.50, -2468.80, -2335.78, -2252.21, 0.000, 0.000, 0.000, 15:31:55.637
45, -2732.34, -2423.36, -2296.99, -2203.81, 0.000, 0.000, 0.000, 15:31:55.638
46, -2721.68, -2414.82, -2284.08, -2194.25, 0.000, 0.000, 0.000, 15:31:55.638
47, -2733.45, -2438.81, -2290.54, -2205.35, 0.000, 0.000, 0.000, 15:31:55.639
48, -2765.62, -2471.51, -2330.28, -2254.37, 0.000, 0.000, 0.000, 15:31:55.639
49, -2735.18, -2450.38, -2290.00, -2183.06, 0.000, 0.000, 0.000, 15:31:55.678
50, -2726.00, -2415.25, -2288.27, -2213.63, 0.000, 0.000, 0.000, 15:31:55.679
51, -2729.88, -2444.68, -2279.83, -2161.75, 0.000, 0.000, 0.000, 15:31:55.679
52, -2773.33, -2482.42, -2333.57, -2290.97, 0.000, 0.000, 0.000, 15:31:55.691
53, -2709.88, -2403.48, -2282.30, -2173.76, 0.000, 0.000, 0.000, 15:31:55.692
54, -2710.35, -2426.89, -2271.32, -2140.83, 0.000, 0.000, 0.000, 15:31:55.692
55, -2770.11, -2490.44, -2332.64, -2307.11, 0.000, 0.000, 0.000, 15:31:55.693
56, -2756.17, -2452.59, -2318.44, -2249.57, 0.000, 0.000, 0.000, 15:31:55.694
57, -2729.64, -2438.78, -2286.72, -2229.25, 0.000, 0.000, 0.000, 15:31:55.694
58, -2699.72, -2386.94, -2277.05, -2168.13, 0.000, 0.000, 0.000, 15:31:55.695
59, -2754.17, -2470.37, -2316.52, -2246.44, 0.000, 0.000, 0.000, 15:31:55.696
60, -2737.36, -2454.15, -2296.63, -2217.82, 0.000, 0.000, 0.000, 15:31:55.696
61, -2730.25, -2439.06, -2288.24, -2196.18, 0.000, 0.000, 0.000, 15:31:55.697
62, -2719.38, -2419.15, -2283.38, -2202.57, 0.000, 0.000, 0.000, 15:31:55.697
63, -2749.32, -2446.21, -2314.08, -2233.07, 0.000, 0.000, 0.000, 15:31:55.697
64, -2740.01, -2441.50, -2306.21, -2209.50, 0.000, 0.000, 0.000, 15:31:55.698
65, -2735.83, -2430.65, -2304.50, -2206.38, 0.000, 0.000, 0.000, 15:31:55.698
66, -2695.97, -2399.31, -2265.44, -2146.11, 0.000, 0.000, 0.000, 15:31:55.698
67, -2766.81, -2490.37, -2338.50, -2289.17, 0.000, 0.000, 0.000, 15:31:55.699
68, -2764.30, -2453.68, -2334.79, -2243.38, 0.000, 0.000, 0.000, 15:31:55.699
69, -2728.26, -2442.40, -2296.03, -2209.15, 0.000, 0.000, 0.000, 15:31:55.700
70, -2699.95, -2388.65, -2264.84, -2144.46, 0.000, 0.000, 0.000, 15:31:55.700
71, -2758.48, -2457.28, -2315.85, -2232.03, 0.000, 0.000, 0.000, 15:31:55.701
72, -2738.02, -2411.52, -2297.40, -2144.29, 0.000, 0.000, 0.000, 15:31:55.701
73, -2755.11, -2479.35, -2307.81, -2263.71, 0.000, 0.000, 0.000, 15:31:55.701
74, -2709.07, -2409.06, -2274.77, -2175.96, 0.000, 0.000, 0.000, 15:31:55.701
75, -2753.27, -2465.04, -2316.54, -2252.16, 0.000, 0.000, 0.000, 15:31:55.702
76, -2764.65, -2474.08, -2323.01, -2258.72, 0.000, 0.000, 0.000, 15:31:55.702
77, -2727.52, -2417.44, -2278.95, -2157.17, 0.000, 0.000, 0.000, 15:31:55.703
78, -2737.49, -2456.71, -2305.63, -2258.19, 0.000, 0.000, 0.000, 15:31:55.703
79, -2740.06, -2442.88, -2301.42, -2208.09, 0.000, 0.000, 0.000, 15:31:55.703
80, -2754.42, -2464.47, -2314.45, -2227.30, 0.000, 0.000, 0.000, 15:31:55.703
81, -2743.27, -2449.89, -2310.69, -2217.33, 0.000, 0.000, 0.000, 15:31:55.704
82, -2713.87, -2391.88, -2267.52, -2180.77, 0.000, 0.000, 0.000, 15:31:55.704
83, -2738.68, -2441.38, -2296.06, -2184.72, 0.000, 0.000, 0.000, 15:31:55.705
84, -2769.83, -2474.28, -2340.78, -2250.68, 0.000, 0.000, 0.000, 15:31:55.705
85, -2740.55, -2421.23, -2311.75, -2220.20, 0.000, 0.000, 0.000, 15:31:55.705
86, -2729.67, -2439.98, -2288.71, -2203.29, 0.000, 0.000, 0.000, 15:31:55.706
87, -2744.28, -2454.66, -2310.66, -2230.19, 0.000, 0.000, 0.000, 15:31:55.706
88, -2755.55, -2461.87, -2314.01, -2246.10, 0.000, 0.000, 0.000, 15:31:55.706
89, -2741.89, -2439.30, -2317.31, -2216.69, 0.000, 0.000, 0.000, 15:31:55.707
90, -2720.08, -2418.55, -2294.42, -2207.09, 0.000, 0.000, 0.000, 15:31:55.707
91, -2742.65, -2440.88, -2305.93, -2208.23, 0.000, 0.000, 0.000, 15:31:55.708
92, -2755.57, -2475.96, -2324.60, -2229.16, 0.000, 0.000, 0.000, 15:31:55.708
93, -2711.75, -2417.48, -2250.97, -2157.76, 0.000, 0.000, 0.000, 15:31:55.708
94, -2737.51, -2428.92, -2321.63, -2208.10, 0.000, 0.000, 0.000, 15:31:55.708
95, -2744.66, -2442.28, -2315.53, -2257.25, 0.000, 0.000, 0.000, 15:31:55.709
96, -2763.07, -2457.89, -2327.60, -2228.89, 0.000, 0.000, 0.000, 15:31:55.709
97, -2730.40, -2421.87, -2291.69, -2190.68, 0.000, 0.000, 0.000, 15:31:55.710
98, -2739.45, -2444.98, -2311.26, -2224.92, 0.000, 0.000, 0.000, 15:31:55.710
99, -2735.89, -2435.56, -2308.37, -2217.78, 0.000, 0.000, 0.000, 15:31:55.711
100, -2738.61, -2443.93, -2304.82, -2223.42, 0.000, 0.000, 0.000, 15:31:55.718
101, -2750.54, -2456.76, -2320.77, -2213.30, 0.000, 0.000, 0.000, 15:31:55.718
102, -2710.91, -2416.97, -2279.69, -2179.84, 0.000, 0.000, 0.000, 15:31:55.718
103, -2751.98, -2463.21, -2302.23, -2267.00, 0.000, 0.000, 0.000, 15:31:55.719
104, -2758.99, -2452.71, -2335.40, -2210.69, 0.000, 0.000, 0.000, 15:31:55.719
105, -2741.48, -2440.47, -2311.68, -2223.17, 0.000, 0.000, 0.000, 15:31:55.719
106, -2716.53, -2407.15, -2275.82, -2165.33, 0.000, 0.000, 0.000, 15:31:55.720
107, -2761.34, -2464.61, -2327.16, -2243.44, 0.000, 0.000, 0.000, 15:31:55.720
108, -2770.01, -2451.52, -2315.80, -2216.14, 0.000, 0.000, 0.000, 15:31:55.720
109, -2785.67, -2472.23, -2334.03, -2263.97, 0.000, 0.000, 0.000, 15:31:55.720
110, -2760.05, -2447.09, -2296.30, -2206.34, 0.000, 0.000, 0.000, 15:31:55.720
111, -2788.89, -2460.90, -2328.99, -2242.05, 0.000, 0.000, 0.000, 15:31:55.720
112, -2806.71, -2470.94, -2343.30, -2235.34, 0.000, 0.000, 0.000, 15:31:55.720
113, -2752.15, -2415.84, -2297.48, -2173.95, 0.000, 0.000, 0.000, 15:31:55.721
114, -2773.74, -2449.35, -2316.29, -2236.86, 0.000, 0.000, 0.000, 15:31:55.721
115, -2748.59, -2430.65, -2300.88, -2203.49, 0.000, 0.000, 0.000, 15:31:55.721
116, -2767.38, -2447.16, -2327.18, -2208.83, 0.000, 0.000, 0.000, 15:31:55.721
117, -2749.30, -2446.66, -2306.91, -2223.80, 0.000, 0.000, 0.000, 15:31:55.721
118, -2722.02, -2387.47, -2285.96, -2171.51, 0.000, 0.000, 0.000, 15:31:55.721
119, -2763.12, -2465.55, -2326.30, -2244.95, 0.000, 0.000, 0.000, 15:31:55.721
120, -2761.62, -2449.71, -2322.35, -2223.57, 0.000, 0.000, 0.000, 15:31:55.722
121, -2744.95, -2433.23, -2312.40, -2191.75, 0.000, 0.000, 0.000, 15:31:55.722
122, -2740.33, -2439.02, -2311.49, -2229.23, 0.000, 0.000, 0.000, 15:31:55.722
123, -2741.05, -2450.97, -2314.40, -2223.61, 0.000, 0.000, 0.000, 15:31:55.722
124, -2754.52, -2467.42, -2334.34, -2217.26, 0.000, 0.000, 0.000, 15:31:55.722
125, -2758.98, -2451.67, -2340.52, -2231.48, 0.000, 0.000, 0.000, 15:31:55.722
126, -2714.96, -2398.81, -2291.38, -2157.01, 0.000, 0.000, 0.000, 15:31:55.722
127, -2770.85, -2473.57, -2346.97, -2273.47, 0.000, 0.000, 0.000, 15:31:55.723
128, -2765.41, -2488.28, -2345.11, -2241.14, 0.000, 0.000, 0.000, 15:31:55.723
129, -2749.50, -2444.27, -2311.79, -2230.76, 0.000, 0.000, 0.000, 15:31:55.723
130, -2739.18, -2439.33, -2321.09, -2198.65, 0.000, 0.000, 0.000, 15:31:55.723
131, -2750.27, -2443.74, -2324.20, -2239.66, 0.000, 0.000, 0.000, 15:31:55.723
132, -2761.41, -2459.22, -2343.56, -2222.10, 0.000, 0.000, 0.000, 15:31:55.724
133, -2761.11, -2477.87, -2334.68, -2241.85, 0.000, 0.000, 0.000, 15:31:55.724
134, -2719.85, -2436.57, -2297.10, -2191.29, 0.000, 0.000, 0.000, 15:31:55.724
135, -2741.16, -2438.54, -2320.82, -2198.80, 0.000, 0.000, 0.000, 15:31:55.724
136, -2761.24, -2472.73, -2339.40, -2254.51, 0.000, 0.000, 0.000, 15:31:55.724
137, -2707.95, -2406.66, -2292.13, -2135.60, 0.000, 0.000, 0.000, 15:31:55.724
138, -2739.19, -2456.28, -2314.58, -2223.95, 0.000, 0.000, 0.000, 15:31:55.724
139, -2756.42, -2470.71, -2326.13, -2261.80, 0.000, 0.000, 0.000, 15:31:55.759
140, -2756.77, -2469.01, -2348.77, -2251.86, 0.000, 0.000, 0.000, 15:31:55.760
141, -2733.86, -2434.49, -2316.65, -2215.67, 0.000, 0.000, 0.000, 15:31:55.761
142, -2714.28, -2419.03, -2297.80, -2200.41, 0.000, 0.000, 0.000, 15:31:55.761
143, -2728.64, -2447.04, -2320.21, -2224.80, 0.000, 0.000, 0.000, 15:31:55.762
144, -2746.57, -2454.92, -2331.69, -2210.27, 0.000, 0.000, 0.000, 15:31:55.762
145, -2746.62, -2434.32, -2336.89, -2227.76, 0.000, 0.000, 0.000, 15:31:55.763
146, -2725.70, -2452.41, -2316.02, -2230.81, 0.000, 0.000, 0.000, 15:31:55.763
147, -2734.04, -2450.14, -2322.29, -2208.26, 0.000, 0.000, 0.000, 15:31:55.823
148, -2759.49, -2470.10, -2345.31, -2256.15, 0.000, 0.000, 0.000, 15:31:55.824
149, -2733.26, -2445.43, -2309.94, -2200.92, 0.000, 0.000, 0.000, 15:31:55.826
150, -2730.64, -2442.85, -2303.56, -2207.20, 0.000, 0.000, 0.000, 15:31:55.827
151, -2750.07, -2474.54, -2344.58, -2223.87, 0.000, 0.000, 0.000, 15:31:55.828
152, -2771.63, -2482.43, -2360.06, -2264.12, 0.000, 0.000, 0.000, 15:31:55.828
153, -2747.01, -2466.02, -2338.76, -2233.89, 0.000, 0.000, 0.000, 15:31:55.829
154, -2714.53, -2423.81, -2309.89, -2196.76, 0.000, 0.000, 0.000, 15:31:55.829
155, -2746.33, -2466.75, -2331.98, -2224.92, 0.000, 0.000, 0.000, 15:31:55.830
156, -2732.73, -2450.96, -2316.35, -2206.37, 0.000, 0.000, 0.000, 15:31:55.830
157, -2767.90, -2482.40, -2364.38, -2255.89, 0.000, 0.000, 0.000, 15:31:55.830
158, -2726.30, -2432.20, -2324.21, -2234.78, 0.000, 0.000, 0.000, 15:31:55.830
159, -2734.00, -2451.50, -2322.54, -2240.56, 0.000, 0.000, 0.000, 15:31:55.831
160, -2757.28, -2482.07, -2358.63, -2250.68, 0.000, 0.000, 0.000, 15:31:55.831
161, -2754.65, -2475.77, -2352.90, -2244.86, 0.000, 0.000, 0.000, 15:31:55.834
162, -2708.14, -2418.24, -2303.60, -2148.14, 0.000, 0.000, 0.000, 15:31:55.835
163, -2746.23, -2452.35, -2352.76, -2248.97, 0.000, 0.000, 0.000, 15:31:55.838
164, -2750.24, -2468.74, -2356.53, -2250.15, 0.000, 0.000, 0.000, 15:31:55.838
165, -2748.15, -2459.09, -2357.13, -2241.97, 0.000, 0.000, 0.000, 15:31:55.852
166, -2716.03, -2440.17, -2316.62, -2213.75, 0.000, 0.000, 0.000, 15:31:55.852
167, -2734.81, -2455.24, -2326.01, -2224.10, 0.000, 0.000, 0.000, 15:31:55.852
168, -2758.29, -2471.53, -2368.12, -2261.36, 0.000, 0.000, 0.000, 15:31:55.852
169, -2741.49, -2469.69, -2340.32, -2246.15, 0.000, 0.000, 0.000, 15:31:55.866
170, -2700.31, -2436.83, -2297.59, -2218.32, 0.000, 0.000, 0.000, 15:31:55.866
171, -2751.63, -2471.14, -2373.43, -2256.44, 0.000, 0.000, 0.000, 15:31:55.888
172, -2758.53, -2478.98, -2362.90, -2266.37, 0.000, 0.000, 0.000, 15:31:55.889
173, -2739.73, -2463.21, -2348.55, -2244.75, 0.000, 0.000, 0.000, 15:31:55.889
174, -2711.65, -2446.41, -2299.56, -2227.91, 0.000, 0.000, 0.000, 15:31:55.889
175, -2731.33, -2453.11, -2325.52, -2226.97, 0.000, 0.000, 0.000, 15:31:55.896
176, -2750.93, -2483.48, -2353.69, -2259.59, 0.000, 0.000, 0.000, 15:31:55.896
177, -2720.30, -2465.82, -2294.23, -2234.58, 0.000, 0.000, 0.000, 15:31:55.910
178, -2696.96, -2439.54, -2283.76, -2216.23, 0.000, 0.000, 0.000, 15:31:55.911
179, -2698.92, -2437.43, -2208.40, -2223.31, 0.000, 0.000, 0.000, 15:31:55.911
180, -2776.55, -2495.30, -2440.18, -2279.93, 0.000, 0.000, 0.000, 15:31:55.912
181, -2725.11, -2448.02, -2285.90, -2218.74, 0.000, 0.000, 0.000, 15:31:55.926
182, -2702.33, -2440.92, -2273.15, -2230.18, 0.000, 0.000, 0.000, 15:31:55.926
183, -2761.60, -2461.54, -2436.17, -2260.81, 0.000, 0.000, 0.000, 15:31:55.945
184, -2738.34, -2461.22, -2333.47, -2261.08, 0.000, 0.000, 0.000, 15:31:55.946
185, -2722.31, -2450.21, -2331.39, -2252.02, 0.000, 0.000, 0.000, 15:31:55.952
186, -2693.87, -2437.64, -2228.61, -2218.53, 0.000, 0.000, 0.000, 15:31:55.952
187, -2747.15, -2469.09, -2415.20, -2252.56, 0.000, 0.000, 0.000, 15:31:55.962
188, -2744.65, -2467.00, -2347.65, -2233.17, 0.000, 0.000, 0.000, 15:31:55.963
189, -2739.31, -2472.56, -2332.39, -2263.85, 0.000, 0.000, 0.000, 15:31:55.972
190, -2706.26, -2456.16, -2288.12, -2257.56, 0.000, 0.000, 0.000, 15:31:55.972
191, -2762.87, -2472.18, -2424.97, -2269.73, 0.000, 0.000, 0.000, 15:31:55.973
192, -2765.01, -2485.75, -2392.58, -2284.04, 0.000, 0.000, 0.000, 15:31:55.973
193, -2750.04, -2467.95, -2355.62, -2262.37, 0.000, 0.000, 0.000, 15:31:55.986
194, -2724.65, -2448.98, -2361.12, -2242.72, 0.000, 0.000, 0.000, 15:31:55.987
195, -2731.95, -2457.52, -2338.03, -2251.57, 0.000, 0.000, 0.000, 15:31:56.003
196, -2753.26, -2482.84, -2323.45, -2267.14, 0.000, 0.000, 0.000, 15:31:56.004
197, -2761.11, -2481.21, -2405.92, -2265.96, 0.000, 0.000, 0.000, 15:31:56.007
198, -2717.13, -2438.52, -2311.92, -2228.59, 0.000, 0.000, 0.000, 15:31:56.008
199, -2735.50, -2456.16, -2364.38, -2255.45, 0.000, 0.000, 0.000, 15:31:56.019
200, -2738.87, -2470.80, -2295.54, -2269.53, 0.000, 0.000, 0.000, 15:31:56.020
0, -2753.88, -2465.81, -2390.23, -2266.27, 0.000, 0.000, 0.000, 15:31:56.021
1, -2719.33, -2442.61, -2310.62, -2237.31, 0.000, 0.000, 0.000, 15:31:56.031
2, -2715.54, -2453.35, -2344.94, -2243.02, 0.000, 0.000, 0.000, 15:31:56.039
3, -2758.63, -2491.84, -2398.43, -2277.16, 0.000, 0.000, 0.000, 15:31:56.129
4, -2732.10, -2469.73, -2329.35, -2264.12, 0.000, 0.000, 0.000, 15:31:56.129
5, -2717.67, -2442.74, -2279.86, -2240.42, 0.000, 0.000, 0.000, 15:31:56.130
6, -2739.49, -2457.62, -2400.98, -2261.14, 0.000, 0.000, 0.000, 15:31:56.130
7, -2750.06, -2477.67, -2346.59, -2280.11, 0.000, 0.000, 0.000, 15:31:56.130
8, -2732.00, -2460.13, -2347.67, -2268.18, 0.000, 0.000, 0.000, 15:31:56.130
9, -2703.28, -2434.01, -2318.58, -2243.38, 0.000, 0.000, 0.000, 15:31:56.194
10, -2713.13, -2444.70, -2367.56, -2257.49, 0.000, 0.000, 0.000, 15:31:56.194
11, -2732.65, -2459.47, -2382.21, -2276.26, 0.000, 0.000, 0.000, 15:31:56.194
12, -2719.81, -2443.81, -2352.32, -2267.69, 0.000, 0.000, 0.000, 15:31:56.194
13, -2704.73, -2430.62, -2328.54, -2246.14, 0.000, 0.000, 0.000, 15:31:56.195
14, -2714.58, -2440.68, -2359.37, -2263.36, 0.000, 0.000, 0.000, 15:31:56.195
15, -2759.01, -2474.35, -2396.37, -2300.43, 0.000, 0.000, 0.000, 15:31:56.210
16, -2738.44, -2461.33, -2359.78, -2281.46, 0.000, 0.000, 0.000, 15:31:56.210
17, -2702.78, -2432.31, -2330.59, -2256.60, 0.000, 0.000, 0.000, 15:31:56.218
18, -2715.60, -2437.70, -2353.05, -2254.62, 0.000, 0.000, 0.000, 15:31:56.218
19, -2733.06, -2470.10, -2363.35, -2294.78, 0.000, 0.000, 0.000, 15:31:56.222
20, -2752.66, -2468.23, -2399.19, -2286.07, 0.000, 0.000, 0.000, 15:31:56.222
21, -2717.20, -2438.28, -2354.95, -2262.79, 0.000, 0.000, 0.000, 15:31:56.223
22, -2713.66, -2432.59, -2333.56, -2263.24, 0.000, 0.000, 0.000, 15:31:56.223
23, -2744.88, -2464.51, -2372.10, -2293.50, 0.000, 0.000, 0.000, 15:31:56.223
24, -2737.22, -2460.59, -2381.29, -2286.42, 0.000, 0.000, 0.000, 15:31:56.224
25, -2702.36, -2433.62, -2333.80, -2262.27, 0.000, 0.000, 0.000, 15:31:56.225
26, -2712.75, -2442.30, -2327.21, -2267.49, 0.000, 0.000, 0.000, 15:31:56.226
27, -2733.35, -2470.56, -2330.69, -2296.28, 0.000, 0.000, 0.000, 15:31:56.227
28, -2736.90, -2461.06, -2377.45, -2290.82, 0.000, 0.000, 0.000, 15:31:56.227
29, -2704.45, -2442.87, -2332.25, -2266.71, 0.000, 0.000, 0.000, 15:31:56.227
30, -2722.46, -2439.90, -2342.12, -2265.40, 0.000, 0.000, 0.000, 15:31:56.227
31, -2746.91, -2474.41, -2360.14, -2303.43, 0.000, 0.000, 0.000, 15:31:56.228
32, -2737.61, -2454.19, -2369.26, -2290.28, 0.000, 0.000, 0.000, 15:31:56.228
33, -2708.17, -2431.11, -2335.12, -2265.50, 0.000, 0.000, 0.000, 15:31:56.229
34, -2721.18, -2441.29, -2347.13, -2273.22, 0.000, 0.000, 0.000, 15:31:56.229
35, -2751.76, -2474.14, -2391.51, -2316.01, 0.000, 0.000, 0.000, 15:31:56.229
36, -2736.83, -2454.57, -2379.54, -2293.48, 0.000, 0.000, 0.000, 15:31:56.229
37, -2707.59, -2431.12, -2342.72, -2264.85, 0.000, 0.000, 0.000, 15:31:56.230
38, -2707.74, -2434.57, -2320.14, -2270.88, 0.000, 0.000, 0.000, 15:31:56.230
39, -2743.44, -2470.00, -2393.17, -2306.20, 0.000, 0.000, 0.000, 15:31:56.230
40, -2730.83, -2462.60, -2377.13, -2303.04, 0.000, 0.000, 0.000, 15:31:56.230
41, -2701.60, -2441.04, -2341.65, -2285.02, 0.000, 0.000, 0.000, 15:31:56.230
42, -2705.32, -2435.23, -2333.36, -2282.42, 0.000, 0.000, 0.000, 15:31:56.231
43, -2737.78, -2470.51, -2360.54, -2325.29, 0.000, 0.000, 0.000, 15:31:56.243
44, -2726.65, -2464.69, -2355.25, -2308.36, 0.000, 0.000, 0.000, 15:31:56.244
45, -2706.67, -2442.52, -2319.03, -2287.88, 0.000, 0.000, 0.000, 15:31:56.256
46, -2710.50, -2435.91, -2346.74, -2275.73, 0.000, 0.000, 0.000, 15:31:56.257
47, -2740.62, -2472.42, -2366.82, -2313.73, 0.000, 0.000, 0.000, 15:31:56.259
48, -2734.38, -2459.08, -2364.81, -2301.81, 0.000, 0.000, 0.000, 15:31:56.259
49, -2708.06, -2437.29, -2336.88, -2281.40, 0.000, 0.000, 0.000, 15:31:56.286
50, -2691.65, -2424.07, -2298.19, -2271.34, 0.000, 0.000, 0.000, 15:31:56.286
51, -2737.10, -2466.61, -2396.83, -2312.50, 0.000, 0.000, 0.000, 15:31:56.287
52, -2736.55, -2461.30, -2377.68, -2304.63, 0.000, 0.000, 0.000, 15:31:56.287
53, -2707.06, -2433.28, -2345.94, -2277.08, 0.000, 0.000, 0.000, 15:31:56.287
54, -2704.88, -2428.16, -2341.75, -2268.37, 0.000, 0.000, 0.000, 15:31:56.288
55, -2734.53, -2465.91, -2365.26, -2307.09, 0.000, 0.000, 0.000, 15:31:56.350
56, -2728.04, -2457.81, -2341.06, -2293.36, 0.000, 0.000, 0.000, 15:31:56.351
57, -2682.18, -2423.02, -2300.79, -2272.34, 0.000, 0.000, 0.000, 15:31:56.353
58, -2699.88, -2423.34, -2356.18, -2274.60, 0.000, 0.000, 0.000, 15:31:56.353
59, -2725.73, -2463.25, -2345.50, -2301.01, 0.000, 0.000, 0.000, 15:31:56.354
60, -2720.54, -2450.96, -2343.02, -2296.75, 0.000, 0.000, 0.000, 15:31:56.354
61, -2693.77, -2436.57, -2320.23, -2273.94, 0.000, 0.000, 0.000, 15:31:56.354
62, -2691.71, -2431.43, -2292.44, -2265.00, 0.000, 0.000, 0.000, 15:31:56.354
63, -2738.92, -2472.69, -2378.87, -2305.94, 0.000, 0.000, 0.000, 15:31:56.355
64, -2728.03, -2468.34, -2362.86, -2288.09, 0.000, 0.000, 0.000, 15:31:56.355
65, -2703.15, -2432.15, -2328.43, -2270.49, 0.000, 0.000, 0.000, 15:31:56.355
66, -2711.13, -2428.72, -2362.58, -2278.79, 0.000, 0.000, 0.000, 15:31:56.356
67, -2727.47, -2456.22, -2341.27, -2310.00, 0.000, 0.000, 0.000, 15:31:56.361
68, -2735.21, -2454.73, -2385.77, -2297.64, 0.000, 0.000, 0.000, 15:31:56.361
69, -2699.10, -2426.66, -2336.27, -2265.03, 0.000, 0.000, 0.000, 15:31:56.375
70, -2699.65, -2426.26, -2330.95, -2270.22, 0.000, 0.000, 0.000, 15:31:56.376
71, -2724.63, -2460.60, -2337.13, -2301.39, 0.000, 0.000, 0.000, 15:31:56.376
72, -2751.28, -2458.86, -2381.38, -2301.96, 0.000, 0.000, 0.000, 15:31:56.376
73, -2702.28, -2428.30, -2329.08, -2267.62, 0.000, 0.000, 0.000, 15:31:56.390
74, -2682.63, -2424.68, -2278.06, -2265.52, 0.000, 0.000, 0.000, 15:31:56.391
75, -2735.07, -2457.15, -2386.79, -2305.77, 0.000, 0.000, 0.000, 15:31:56.409
76, -2734.63, -2457.10, -2358.31, -2310.30, 0.000, 0.000, 0.000, 15:31:56.410
77, -2725.84, -2440.65, -2351.92, -2296.23, 0.000, 0.000, 0.000, 15:31:56.410
78, -2710.54, -2425.13, -2319.53, -2279.04, 0.000, 0.000, 0.000, 15:31:56.410
79, -2747.40, -2466.30, -2372.77, -2308.07, 0.000, 0.000, 0.000, 15:31:56.421
80, -2734.73, -2455.70, -2346.02, -2295.53, 0.000, 0.000, 0.000, 15:31:56.421
81, -2704.24, -2428.46, -2298.11, -2258.69, 0.000, 0.000, 0.000, 15:31:56.436
82, -2712.38, -2428.86, -2361.16, -2269.34, 0.000, 0.000, 0.000, 15:31:56.436
83, -2732.26, -2467.31, -2321.93, -2293.67, 0.000, 0.000, 0.000, 15:31:56.499
84, -2745.74, -2461.99, -2387.84, -2291.51, 0.000, 0.000, 0.000, 15:31:56.499
85, -2716.02, -2440.15, -2348.45, -2274.36, 0.000, 0.000, 0.000, 15:31:56.550
86, -2710.96, -2437.30, -2339.85, -2270.83, 0.000, 0.000, 0.000, 15:31:56.551
87, -2745.83, -2476.32, -2368.73, -2300.70, 0.000, 0.000, 0.000, 15:31:56.551
88, -2722.84, -2455.35, -2328.52, -2283.80, 0.000, 0.000, 0.000, 15:31:56.551
89, -2710.40, -2445.13, -2350.37, -2271.30, 0.000, 0.000, 0.000, 15:31:56.567
90, -2704.01, -2422.03, -2311.32, -2261.50, 0.000, 0.000, 0.000, 15:31:56.586
91, -2727.18, -2462.91, -2340.88, -2292.19, 0.000, 0.000, 0.000, 15:31:56.587
92, -2736.19, -2469.25, -2358.94, -2312.77, 0.000, 0.000, 0.000, 15:31:56.587
93, -2725.03, -2450.07, -2333.85, -2289.93, 0.000, 0.000, 0.000, 15:31:56.588
94, -2715.62, -2442.63, -2337.51, -2285.55, 0.000, 0.000, 0.000, 15:31:56.591
95, -2735.32, -2470.76, -2336.16, -2315.51, 0.000, 0.000, 0.000, 15:31:56.592
96, -2748.62, -2473.64, -2361.67, -2310.36, 0.000, 0.000, 0.000, 15:31:56.592
97, -2724.60, -2451.56, -2347.48, -2298.24, 0.000, 0.000, 0.000, 15:31:56.592
98, -2718.39, -2448.68, -2332.93, -2277.12, 0.000, 0.000, 0.000, 15:31:56.592
99, -2743.49, -2478.26, -2355.12, -2304.44, 0.000, 0.000, 0.000, 15:31:56.592
100, -2755.13, -2471.88, -2369.43, -2310.53, 0.000, 0.000, 0.000, 15:31:56.592
101, -2710.44, -2437.49, -2329.34, -2271.89, 0.000, 0.000, 0.000, 15:31:56.592
102, -2709.72, -2438.04, -2329.09, -2274.24, 0.000, 0.000, 0.000, 15:31:56.593
103, -2736.22, -2462.15, -2356.54, -2299.21, 0.000, 0.000, 0.000, 15:31:56.593
104, -2740.08, -2457.84, -2341.27, -2296.43, 0.000, 0.000, 0.000, 15:31:56.593
105, -2713.56, -2434.87, -2340.93, -2280.78, 0.000, 0.000, 0.000, 15:31:56.593
106, -2689.67, -2419.42, -2306.77, -2264.07, 0.000, 0.000, 0.000, 15:31:56.593
107, -2744.56, -2465.06, -2340.18, -2304.31, 0.000, 0.000, 0.000, 15:31:56.593
108, -2738.68, -2473.13, -2362.36, -2304.01, 0.000, 0.000, 0.000, 15:31:56.593
109, -2713.92, -2430.95, -2321.89, -2273.66, 0.000, 0.000, 0.000, 15:31:56.593
110, -2701.35, -2428.69, -2312.57, -2275.82, 0.000, 0.000, 0.000, 15:31:56.593
111, -2739.09, -2456.42, -2338.08, -2300.64, 0.000, 0.000, 0.000, 15:31:56.594
112, -2752.04, -2477.73, -2387.43, -2331.98, 0.000, 0.000, 0.000, 15:31:56.594
113, -2725.12, -2451.43, -2410.08, -2292.59, 0.000, 0.000, 0.000, 15:31:56.594
114, -2702.35, -2424.43, -2376.84, -2269.74, 0.000, 0.000, 0.000, 15:31:56.594
115, -2736.00, -2467.99, -2404.08, -2311.24, 0.000, 0.000, 0.000, 15:31:56.664
116, -2737.91, -2461.33, -2401.19, -2308.23, 0.000, 0.000, 0.000, 15:31:56.664
117, -2719.53, -2437.63, -2378.58, -2284.20, 0.000, 0.000, 0.000, 15:31:56.665
118, -2715.35, -2433.51, -2372.64, -2285.46, 0.000, 0.000, 0.000, 15:31:56.665
119, -2736.83, -2450.38, -2387.54, -2303.64, 0.000, 0.000, 0.000, 15:31:56.665
120, -2737.22, -2455.55, -2381.54, -2305.13, 0.000, 0.000, 0.000, 15:31:56.666
121, -2720.61, -2438.10, -2339.44, -2282.18, 0.000, 0.000, 0.000, 15:31:56.666
122, -2710.56, -2422.94, -2371.26, -2272.32, 0.000, 0.000, 0.000, 15:31:56.666
123, -2725.72, -2433.33, -2365.39, -2277.89, 0.000, 0.000, 0.000, 15:31:56.666
124, -2730.13, -2432.85, -2360.68, -2296.60, 0.000, 0.000, 0.000, 15:31:56.666
125, -2733.35, -2446.63, -2372.29, -2300.17, 0.000, 0.000, 0.000, 15:31:56.667
126, -2706.62, -2422.47, -2310.28, -2276.93, 0.000, 0.000, 0.000, 15:31:56.667
127, -2741.78, -2437.33, -2394.84, -2290.05, 0.000, 0.000, 0.000, 15:31:56.670
128, -2747.79, -2469.52, -2350.99, -2342.87, 0.000, 0.000, 0.000, 15:31:56.670
129, -2722.83, -2439.62, -2356.89, -2288.88, 0.000, 0.000, 0.000, 15:31:56.696
130, -2704.30, -2420.44, -2305.70, -2278.26, 0.000, 0.000, 0.000, 15:31:56.696
131, -2732.42, -2464.89, -2360.51, -2323.19, 0.000, 0.000, 0.000, 15:31:56.697
132, -2733.70, -2449.55, -2345.85, -2286.98, 0.000, 0.000, 0.000, 15:31:56.697
133, -2717.75, -2430.71, -2317.08, -2275.53, 0.000, 0.000, 0.000, 15:31:56.697
134, -2712.10, -2442.80, -2334.80, -2293.96, 0.000, 0.000, 0.000, 15:31:56.697
135, -2748.45, -2482.99, -2357.88, -2317.28, 0.000, 0.000, 0.000, 15:31:56.706
136, -2751.00, -2456.61, -2354.96, -2296.58, 0.000, 0.000, 0.000, 15:31:56.706
137, -2719.60, -2432.41, -2327.20, -2278.85, 0.000, 0.000, 0.000, 15:31:56.714
138, -2712.18, -2402.57, -2318.78, -2245.98, 0.000, 0.000, 0.000, 15:31:56.714
139, -2748.79, -2452.87, -2351.88, -2289.51, 0.000, 0.000, 0.000, 15:31:56.723
140, -2755.39, -2463.31, -2349.39, -2297.69, 0.000, 0.000, 0.000, 15:31:56.723
141, -2735.13, -2435.33, -2338.31, -2274.87, 0.000, 0.000, 0.000, 15:31:56.777
142, -2719.83, -2428.57, -2334.17, -2266.29, 0.000, 0.000, 0.000, 15:31:56.777
143, -2746.62, -2462.05, -2358.09, -2302.21, 0.000, 0.000, 0.000, 15:31:56.779
144, -2744.08, -2452.25, -2349.65, -2297.85, 0.000, 0.000, 0.000, 15:31:56.779
145, -2733.20, -2451.10, -2337.00, -2278.94, 0.000, 0.000, 0.000, 15:31:56.780
146, -2710.82, -2432.58, -2309.80, -2286.77, 0.000, 0.000, 0.000, 15:31:56.780
147, -2738.41, -2454.43, -2347.24, -2281.64, 0.000, 0.000, 0.000, 15:31:56.781
148, -2735.68, -2454.03, -2327.83, -2311.85, 0.000, 0.000, 0.000, 15:31:56.781
149, -2734.55, -2450.12, -2337.03, -2304.79, 0.000, 0.000, 0.000, 15:31:56.781
150, -2699.29, -2411.22, -2274.87, -2243.48, 0.000, 0.000, 0.000, 15:31:56.781
151, -2754.96, -2475.38, -2378.77, -2314.86, 0.000, 0.000, 0.000, 15:31:56.782
152, -2756.07, -2473.21, -2363.29, -2297.84, 0.000, 0.000, 0.000, 15:31:56.782
153, -2719.55, -2419.57, -2314.01, -2262.56, 0.000, 0.000, 0.000, 15:31:56.796
154, -2726.63, -2446.89, -2317.11, -2279.49, 0.000, 0.000, 0.000, 15:31:56.796
155, -2742.65, -2459.57, -2346.40, -2281.37, 0.000, 0.000, 0.000, 15:31:56.799
156, -2746.55, -2455.76, -2353.08, -2289.11, 0.000, 0.000, 0.000, 15:31:56.799
157, -2731.80, -2441.21, -2333.17, -2258.15, 0.000, 0.000, 0.000, 15:31:56.811
158, -2709.75, -2422.06, -2306.61, -2252.67, 0.000, 0.000, 0.000, 15:31:56.811
159, -2743.89, -2462.62, -2343.69, -2287.54, 0.000, 0.000, 0.000, 15:31:56.828
160, -2749.05, -2452.23, -2352.10, -2280.56, 0.000, 0.000, 0.000, 15:31:56.828
161, -2735.61, -2443.77, -2336.38, -2271.05, 0.000, 0.000, 0.000, 15:31:56.832
162, -2721.63, -2429.34, -2346.17, -2258.98, 0.000, 0.000, 0.000, 15:31:56.832
163, -2740.54, -2466.66, -2334.40, -2302.14, 0.000, 0.000, 0.000, 15:31:56.846
164, -2760.14, -2476.72, -2379.85, -2308.05, 0.000, 0.000, 0.000, 15:31:56.846
165, -2729.87, -2451.82, -2346.05, -2267.01, 0.000, 0.000, 0.000, 15:31:56.886
166, -2690.29, -2387.27, -2294.63, -2200.07, 0.000, 0.000, 0.000, 15:31:56.886
167, -2756.60, -2488.14, -2358.62, -2307.32, 0.000, 0.000, 0.000, 15:31:56.887
168, -2754.92, -2474.51, -2345.55, -2309.76, 0.000, 0.000, 0.000, 15:31:56.887
169, -2720.10, -2428.20, -2313.05, -2235.85, 0.000, 0.000, 0.000, 15:31:56.887
170, -2717.79, -2444.86, -2312.70, -2271.45, 0.000, 0.000, 0.000, 15:31:56.888
171, -2731.02, -2460.29, -2340.34, -2272.73, 0.000, 0.000, 0.000, 15:31:56.904
172, -2750.80, -2474.15, -2341.84, -2290.78, 0.000, 0.000, 0.000, 15:31:56.905
173, -2728.96, -2450.31, -2326.98, -2251.54, 0.000, 0.000, 0.000, 15:31:56.905
174, -2708.41, -2425.22, -2302.42, -2224.68, 0.000, 0.000, 0.000, 15:31:56.906
175, -2739.04, -2455.41, -2333.73, -2300.49, 0.000, 0.000, 0.000, 15:31:56.906
176, -2746.06, -2457.78, -2336.54, -2289.75, 0.000, 0.000, 0.000, 15:31:56.906
177, -2738.52, -2443.68, -2339.48, -2256.04, 0.000, 0.000, 0.000, 15:31:56.916
178, -2711.73, -2428.66, -2318.44, -2258.92, 0.000, 0.000, 0.000, 15:31:56.917
179, -2755.45, -2475.06, -2354.25, -2288.04, 0.000, 0.000, 0.000, 15:31:56.917
180, -2760.32, -2484.68, -2361.88, -2315.72, 0.000, 0.000, 0.000, 15:31:56.917
181, -2746.53, -2452.64, -2337.08, -2281.44, 0.000, 0.000, 0.000, 15:31:56.932
182, -2713.09, -2414.85, -2292.28, -2257.48, 0.000, 0.000, 0.000, 15:31:56.932
183, -2735.53, -2461.68, -2341.74, -2286.12, 0.000, 0.000, 0.000, 15:31:56.952
184, -2745.26, -2464.92, -2334.71, -2287.87, 0.000, 0.000, 0.000, 15:31:56.953
185, -2724.74, -2437.84, -2318.81, -2261.81, 0.000, 0.000, 0.000, 15:31:56.953
186, -2712.41, -2426.55, -2304.34, -2244.41, 0.000, 0.000, 0.000, 15:31:56.953
187, -2735.48, -2430.59, -2322.32, -2238.46, 0.000, 0.000, 0.000, 15:31:56.961
188, -2762.62, -2484.78, -2347.23, -2292.94, 0.000, 0.000, 0.000, 15:31:56.961
189, -2743.90, -2456.35, -2331.24, -2273.02, 0.000, 0.000, 0.000, 15:31:56.988
190, -2713.24, -2414.56, -2295.33, -2227.36, 0.000, 0.000, 0.000, 15:31:56.988
191, -2724.77, -2419.52, -2319.10, -2221.26, 0.000, 0.000, 0.000, 15:31:56.997
192, -2749.45, -2467.73, -2333.84, -2256.19, 0.000, 0.000, 0.000, 15:31:56.997
193, -2729.39, -2446.80, -2324.57, -2293.60, 0.000, 0.000, 0.000, 15:31:56.998
194, -2689.91, -2396.48, -2286.47, -2236.51, 0.000, 0.000, 0.000, 15:31:56.998
195, -2738.86, -2452.65, -2331.88, -2287.44, 0.000, 0.000, 0.000, 15:31:57.024
196, -2732.71, -2432.12, -2333.61, -2261.54, 0.000, 0.000, 0.000, 15:31:57.024
197, -2752.63, -2450.65, -2355.03, -2272.80, 0.000, 0.000, 0.000, 15:31:57.025
198, -2725.95, -2440.07, -2346.26, -2269.63, 0.000, 0.000, 0.000, 15:31:57.025
199, -2741.89, -2459.58, -2364.25, -2273.77, 0.000, 0.000, 0.000, 15:31:57.026
200, -2765.93, -2477.32, -2393.74, -2286.91, 0.000, 0.000, 0.000, 15:31:57.026
0, -2730.57, -2435.29, -2350.88, -2246.66, 0.000, 0.000, 0.000, 15:31:57.026
1, -2713.27, -2432.30, -2335.65, -2241.60, 0.000, 0.000, 0.000, 15:31:57.099
2, -2748.26, -2467.02, -2362.09, -2269.14, 0.000, 0.000, 0.000, 15:31:57.100
3, -2759.75, -2480.45, -2370.38, -2295.02, 0.000, 0.000, 0.000, 15:31:57.101
4, -2727.33, -2435.35, -2330.80, -2253.70, 0.000, 0.000, 0.000, 15:31:57.101
5, -2721.87, -2435.31, -2327.08, -2243.51, 0.000, 0.000, 0.000, 15:31:57.102
6, -2740.82, -2448.61, -2339.94, -2255.22, 0.000, 0.000, 0.000, 15:31:57.102
7, -2746.28, -2443.31, -2345.55, -2261.33, 0.000, 0.000, 0.000, 15:31:57.102
8, -2739.97, -2445.94, -2340.42, -2257.88, 0.000, 0.000, 0.000, 15:31:57.103
9, -2712.36, -2416.70, -2309.71, -2231.62, 0.000, 0.000, 0.000, 15:31:57.103
10, -2726.67, -2427.33, -2318.74, -2234.49, 0.000, 0.000, 0.000, 15:31:57.103
11, -2749.96, -2450.10, -2334.66, -2247.95, 0.000, 0.000, 0.000, 15:31:57.103
12, -2747.96, -2452.93, -2333.39, -2263.78, 0.000, 0.000, 0.000, 15:31:57.104
13, -2732.80, -2446.35, -2317.11, -2263.58, 0.000, 0.000, 0.000, 15:31:57.104
14, -2740.61, -2452.78, -2329.49, -2262.26, 0.000, 0.000, 0.000, 15:31:57.104
15, -2763.88, -2466.14, -2350.17, -2281.37, 0.000, 0.000, 0.000, 15:31:57.113
16, -2745.72, -2458.88, -2329.12, -2262.58, 0.000, 0.000, 0.000, 15:31:57.113
17, -2726.24, -2446.75, -2311.27, -2258.64, 0.000, 0.000, 0.000, 15:31:57.114
18, -2739.77, -2446.83, -2318.80, -2259.24, 0.000, 0.000, 0.000, 15:31:57.114
19, -2768.50, -2474.43, -2348.60, -2274.80, 0.000, 0.000, 0.000, 15:31:57.142
20, -2750.01, -2460.90, -2340.15, -2281.21, 0.000, 0.000, 0.000, 15:31:57.142
21, -2735.62, -2445.35, -2318.17, -2254.23, 0.000, 0.000, 0.000, 15:31:57.142
22, -2742.99, -2440.29, -2323.35, -2260.88, 0.000, 0.000, 0.000, 15:31:57.143
23, -2752.82, -2469.51, -2327.29, -2274.38, 0.000, 0.000, 0.000, 15:31:57.143
24, -2739.05, -2460.61, -2321.91, -2262.41, 0.000, 0.000, 0.000, 15:31:57.143
25, -2715.49, -2425.25, -2302.99, -2219.16, 0.000, 0.000, 0.000, 15:31:57.190
26, -2727.72, -2440.35, -2320.87, -2264.47, 0.000, 0.000, 0.000, 15:31:57.190
27, -2757.43, -2459.53, -2347.39, -2263.28, 0.000, 0.000, 0.000, 15:31:57.191
28, -2734.25, -2436.98, -2315.87, -2253.74, 0.000, 0.000, 0.000, 15:31:57.191
29, -2740.60, -2451.82, -2317.55, -2249.94, 0.000, 0.000, 0.000, 15:31:57.191
30, -2740.97, -2441.26, -2323.74, -2247.98, 0.000, 0.000, 0.000, 15:31:57.191
31, -2764.15, -2468.47, -2348.30, -2273.75, 0.000, 0.000, 0.000, 15:31:57.191
32, -2749.66, -2455.18, -2337.64, -2277.28, 0.000, 0.000, 0.000, 15:31:57.192
33, -2712.27, -2402.49, -2289.29, -2216.20, 0.000, 0.000, 0.000, 15:31:57.214
34, -2754.12, -2462.95, -2344.90, -2273.86, 0.000, 0.000, 0.000, 15:31:57.215
35, -2772.32, -2475.02, -2358.47, -2283.79, 0.000, 0.000, 0.000, 15:31:57.216
36, -2751.29, -2450.49, -2331.24, -2281.83, 0.000, 0.000, 0.000, 15:31:57.216
37, -2710.52, -2432.30, -2282.77, -2248.29, 0.000, 0.000, 0.000, 15:31:57.217
38, -2714.01, -2406.70, -2282.06, -2209.14, 0.000, 0.000, 0.000, 15:31:57.217
39, -2780.15, -2504.69, -2353.57, -2322.23, 0.000, 0.000, 0.000, 15:31:57.235
40, -2754.34, -2466.41, -2329.75, -2280.49, 0.000, 0.000, 0.000, 15:31:57.236
41, -2716.74, -2419.88, -2295.30, -2218.87, 0.000, 0.000, 0.000, 15:31:57.236
42, -2751.39, -2470.26, -2321.89, -2251.01, 0.000, 0.000, 0.000, 15:31:57.237
43, -2753.99, -2452.80, -2326.83, -2258.16, 0.000, 0.000, 0.000, 15:31:57.246
44, -2742.89, -2453.09, -2318.43, -2283.83, 0.000, 0.000, 0.000, 15:31:57.247
45, -2706.83, -2441.80, -2289.79, -2239.08, 0.000, 0.000, 0.000, 15:31:57.264
46, -2756.00, -2475.69, -2331.85, -2275.11, 0.000, 0.000, 0.000, 15:31:57.264
47, -2757.46, -2471.62, -2341.53, -2277.98, 0.000, 0.000, 0.000, 15:31:57.265
48, -2756.27, -2477.18, -2339.32, -2272.65, 0.000, 0.000, 0.000, 15:31:57.265
49, -2725.10, -2447.79, -2315.62, -2256.54, 0.000, 0.000, 0.000, 15:31:57.277
50, -2756.13, -2468.09, -2331.15, -2264.09, 0.000, 0.000, 0.000, 15:31:57.277
51, -2780.80, -2504.39, -2365.82, -2317.02, 0.000, 0.000, 0.000, 15:31:57.295
52, -2735.27, -2439.22, -2322.35, -2238.22, 0.000, 0.000, 0.000, 15:31:57.295
53, -2727.64, -2473.87, -2298.21, -2290.37, 0.000, 0.000, 0.000, 15:31:57.296
54, -2715.05, -2447.56, -2263.95, -2244.18, 0.000, 0.000, 0.000, 15:31:57.296
55, -2763.82, -2490.75, -2370.68, -2261.97, 0.000, 0.000, 0.000, 15:31:57.313
56, -2735.15, -2451.44, -2335.00, -2270.52, 0.000, 0.000, 0.000, 15:31:57.313
57, -2706.34, -2428.19, -2299.44, -2246.17, 0.000, 0.000, 0.000, 15:31:57.330
58, -2713.29, -2432.39, -2308.88, -2259.40, 0.000, 0.000, 0.000, 15:31:57.331
59, -2757.47, -2475.07, -2335.45, -2285.77, 0.000, 0.000, 0.000, 15:31:57.346
60, -2726.74, -2433.03, -2312.99, -2239.73, 0.000, 0.000, 0.000, 15:31:57.346
61, -2710.00, -2427.30, -2280.74, -2220.18, 0.000, 0.000, 0.000, 15:31:57.347
62, -2734.58, -2456.90, -2325.12, -2271.67, 0.000, 0.000, 0.000, 15:31:57.347
63, -2747.70, -2468.55, -2326.21, -2287.25, 0.000, 0.000, 0.000, 15:31:57.353
64, -2738.92, -2444.62, -2309.71, -2231.58, 0.000, 0.000, 0.000, 15:31:57.353
65, -2739.51, -2467.60, -2321.17, -2294.12, 0.000, 0.000, 0.000, 15:31:57.353
66, -2748.26, -2465.87, -2324.98, -2277.54, 0.000, 0.000, 0.000, 15:31:57.354
67, -2752.65, -2470.11, -2329.51, -2281.60, 0.000, 0.000, 0.000, 15:31:57.366
68, -2750.76, -2470.19, -2320.86, -2277.03, 0.000, 0.000, 0.000, 15:31:57.366
69, -2716.69, -2447.13, -2291.61, -2242.51, 0.000, 0.000, 0.000, 15:31:57.381
70, -2729.31, -2450.99, -2313.21, -2250.18, 0.000, 0.000, 0.000, 15:31:57.381
71, -2757.68, -2479.31, -2342.21, -2275.90, 0.000, 0.000, 0.000, 15:31:57.382
72, -2732.63, -2462.28, -2319.63, -2264.02, 0.000, 0.000, 0.000, 15:31:57.382
73, -2715.61, -2438.59, -2301.42, -2238.24, 0.000, 0.000, 0.000, 15:31:57.400
74, -2741.24, -2456.70, -2317.37, -2264.67, 0.000, 0.000, 0.000, 15:31:57.400
75, -2763.17, -2482.05, -2346.90, -2289.12, 0.000, 0.000, 0.000, 15:31:57.411
76, -2744.77, -2464.65, -2331.55, -2269.55, 0.000, 0.000, 0.000, 15:31:57.412
77, -2716.82, -2437.40, -2302.11, -2237.82, 0.000, 0.000, 0.000, 15:31:57.413
78, -2714.71, -2440.11, -2284.30, -2222.15, 0.000, 0.000, 0.000, 15:31:57.413
79, -2765.01, -2498.18, -2355.39, -2301.96, 0.000, 0.000, 0.000, 15:31:57.426
80, -2749.69, -2459.04, -2322.69, -2250.73, 0.000, 0.000, 0.000, 15:31:57.426
81, -2732.80, -2441.96, -2333.93, -2211.92, 0.000, 0.000, 0.000, 15:31:57.443
82, -2727.18, -2444.86, -2314.36, -2262.58, 0.000, 0.000, 0.000, 15:31:57.443
83, -2742.40, -2460.51, -2321.30, -2255.74, 0.000, 0.000, 0.000, 15:31:57.444
84, -2716.85, -2422.06, -2281.23, -2197.17, 0.000, 0.000, 0.000, 15:31:57.444
85, -2743.78, -2451.18, -2337.77, -2256.30, 0.000, 0.000, 0.000, 15:31:57.456
86, -2745.91, -2447.23, -2340.85, -2265.34, 0.000, 0.000, 0.000, 15:31:57.456
87, -2782.22, -2494.92, -2381.92, -2323.35, 0.000, 0.000, 0.000, 15:31:57.476
88, -2719.13, -2413.07, -2316.93, -2227.94, 0.000, 0.000, 0.000, 15:31:57.476
89, -2718.53, -2437.81, -2321.77, -2271.44, 0.000, 0.000, 0.000, 15:31:57.477
90, -2713.40, -2438.82, -2304.14, -2228.97, 0.000, 0.000, 0.000, 15:31:57.477
91, -2747.47, -2473.58, -2340.32, -2297.66, 0.000, 0.000, 0.000, 15:31:57.490
92, -2720.17, -2438.51, -2318.81, -2258.26, 0.000, 0.000, 0.000, 15:31:57.490
93, -2689.82, -2404.19, -2283.02, -2207.13, 0.000, 0.000, 0.000, 15:31:57.511
94, -2703.99, -2424.89, -2301.36, -2232.80, 0.000, 0.000, 0.000, 15:31:57.511
95, -2730.14, -2450.63, -2319.58, -2272.79, 0.000, 0.000, 0.000, 15:31:57.512
96, -2726.62, -2447.87, -2304.96, -2259.78, 0.000, 0.000, 0.000, 15:31:57.512
97, -2703.74, -2414.89, -2305.99, -2231.49, 0.000, 0.000, 0.000, 15:31:57.540
98, -2699.64, -2406.91, -2295.21, -2208.20, 0.000, 0.000, 0.000, 15:31:57.540
99, -2734.43, -2463.42, -2329.76, -2278.90, 0.000, 0.000, 0.000, 15:31:57.541
100, -2724.46, -2448.28, -2319.88, -2265.66, 0.000, 0.000, 0.000, 15:31:57.541
101, -2709.19, -2429.67, -2297.21, -2240.61, 0.000, 0.000, 0.000, 15:31:57.542
102, -2713.12, -2431.61, -2290.97, -2230.46, 0.000, 0.000, 0.000, 15:31:57.542
103, -2756.07, -2474.82, -2346.05, -2283.57, 0.000, 0.000, 0.000, 15:31:57.548
104, -2751.18, -2467.88, -2341.69, -2269.40, 0.000, 0.000, 0.000, 15:31:57.548
105, -2728.73, -2443.02, -2315.67, -2250.37, 0.000, 0.000, 0.000, 15:31:57.594
106, -2745.73, -2454.10, -2327.30, -2252.72, 0.000, 0.000, 0.000, 15:31:57.595
107, -2767.41, -2482.09, -2355.40, -2270.74, 0.000, 0.000, 0.000, 15:31:57.595
108, -2753.76, -2461.81, -2326.98, -2257.44, 0.000, 0.000, 0.000, 15:31:57.596
109, -2735.42, -2448.33, -2306.19, -2234.65, 0.000, 0.000, 0.000, 15:31:57.596
110, -2735.76, -2450.38, -2303.56, -2221.69, 0.000, 0.000, 0.000, 15:31:57.597
111, -2786.11, -2501.14, -2371.40, -2320.43, 0.000, 0.000, 0.000, 15:31:57.598
112, -2756.40, -2462.99, -2337.70, -2255.95, 0.000, 0.000, 0.000, 15:31:57.598
113, -2725.42, -2436.75, -2303.52, -2223.26, 0.000, 0.000, 0.000, 15:31:57.598
114, -2738.41, -2445.39, -2306.39, -2226.29, 0.000, 0.000, 0.000, 15:31:57.599
115, -2781.69, -2496.85, -2357.07, -2308.45, 0.000, 0.000, 0.000, 15:31:57.609
116, -2750.50, -2464.21, -2326.54, -2258.53, 0.000, 0.000, 0.000, 15:31:57.610
117, -2726.51, -2431.68, -2305.00, -2176.34, 0.000, 0.000, 0.000, 15:31:57.627
118, -2741.41, -2445.69, -2312.32, -2256.90, 0.000, 0.000, 0.000, 15:31:57.627
119, -2771.25, -2490.35, -2342.87, -2281.38, 0.000, 0.000, 0.000, 15:31:57.627
120, -2753.64, -2468.42, -2322.68, -2265.48, 0.000, 0.000, 0.000, 15:31:57.627
121, -2732.83, -2445.89, -2299.89, -2228.07, 0.000, 0.000, 0.000, 15:31:57.645
122, -2739.32, -2465.25, -2316.81, -2258.12, 0.000, 0.000, 0.000, 15:31:57.645
123, -2762.82, -2494.56, -2343.34, -2275.27, 0.000, 0.000, 0.000, 15:31:57.667
124, -2771.20, -2485.42, -2350.30, -2296.21, 0.000, 0.000, 0.000, 15:31:57.667
125, -2727.52, -2440.81, -2308.09, -2234.31, 0.000, 0.000, 0.000, 15:31:57.667
126, -2726.96, -2430.51, -2301.01, -2222.90, 0.000, 0.000, 0.000, 15:31:57.667
127, -2762.98, -2482.63, -2343.42, -2293.24, 0.000, 0.000, 0.000, 15:31:57.669
128, -2741.61, -2463.54, -2323.46, -2272.24, 0.000, 0.000, 0.000, 15:31:57.669
129, -2707.86, -2426.47, -2296.21, -2239.76, 0.000, 0.000, 0.000, 15:31:57.681
130, -2709.45, -2423.91, -2277.32, -2212.84, 0.000, 0.000, 0.000, 15:31:57.682
131, -2758.28, -2476.44, -2341.17, -2292.73, 0.000, 0.000, 0.000, 15:31:57.682
132, -2756.77, -2468.31, -2343.34, -2275.84, 0.000, 0.000, 0.000, 15:31:57.682
133, -2727.87, -2444.95, -2310.18, -2238.82, 0.000, 0.000, 0.000, 15:31:57.697
134, -2733.24, -2447.92, -2314.73, -2250.71, 0.000, 0.000, 0.000, 15:31:57.697
135, -2765.56, -2485.96, -2348.61, -2282.63, 0.000, 0.000, 0.000, 15:31:57.718
136, -2748.14, -2473.41, -2327.63, -2265.81, 0.000, 0.000, 0.000, 15:31:57.718
137, -2723.09, -2442.80, -2293.56, -2238.12, 0.000, 0.000, 0.000, 15:31:57.718
138, -2720.34, -2438.09, -2293.05, -2217.45, 0.000, 0.000, 0.000, 15:31:57.718
139, -2767.48, -2483.08, -2339.13, -2283.01, 0.000, 0.000, 0.000, 15:31:57.776
140, -2751.98, -2468.40, -2322.83, -2256.87, 0.000, 0.000, 0.000, 15:31:57.777
141, -2726.74, -2440.57, -2303.40, -2245.55, 0.000, 0.000, 0.000, 15:31:57.804
142, -2732.77, -2433.88, -2313.56, -2257.10, 0.000, 0.000, 0.000, 15:31:57.805
143, -2760.51, -2483.16, -2336.54, -2281.76, 0.000, 0.000, 0.000, 15:31:57.805
144, -2760.66, -2465.35, -2343.60, -2241.46, 0.000, 0.000, 0.000, 15:31:57.805
145, -2739.49, -2458.81, -2327.16, -2284.71, 0.000, 0.000, 0.000, 15:31:57.855
146, -2727.14, -2420.49, -2317.67, -2225.58, 0.000, 0.000, 0.000, 15:31:57.856
147, -2750.50, -2465.98, -2338.53, -2227.12, 0.000, 0.000, 0.000, 15:31:57.859
148, -2771.57, -2494.26, -2356.46, -2337.70, 0.000, 0.000, 0.000, 15:31:57.859
149, -2732.60, -2433.54, -2320.37, -2256.01, 0.000, 0.000, 0.000, 15:31:57.861
150, -2727.67, -2429.48, -2304.81, -2248.18, 0.000, 0.000, 0.000, 15:31:57.861
151, -2753.76, -2449.87, -2341.35, -2255.46, 0.000, 0.000, 0.000, 15:31:57.862
152, -2750.19, -2448.97, -2331.82, -2273.77, 0.000, 0.000, 0.000, 15:31:57.862
153, -2713.81, -2424.69, -2297.80, -2226.88, 0.000, 0.000, 0.000, 15:31:57.863
154, -2727.46, -2435.71, -2311.94, -2231.15, 0.000, 0.000, 0.000, 15:31:57.863
155, -2782.98, -2505.49, -2360.84, -2359.97, 0.000, 0.000, 0.000, 15:31:57.863
156, -2746.29, -2447.57, -2332.02, -2252.67, 0.000, 0.000, 0.000, 15:31:57.863
157, -2734.69, -2441.89, -2318.26, -2286.00, 0.000, 0.000, 0.000, 15:31:57.864
158, -2705.21, -2415.09, -2284.77, -2216.94, 0.000, 0.000, 0.000, 15:31:57.864
159, -2761.88, -2479.64, -2347.45, -2322.91, 0.000, 0.000, 0.000, 15:31:57.864
160, -2737.41, -2438.78, -2319.25, -2237.96, 0.000, 0.000, 0.000, 15:31:57.865
161, -2718.22, -2431.17, -2301.76, -2259.99, 0.000, 0.000, 0.000, 15:31:57.865
162, -2713.08, -2423.78, -2282.23, -2176.69, 0.000, 0.000, 0.000, 15:31:57.865
163, -2761.33, -2469.52, -2342.21, -2292.29, 0.000, 0.000, 0.000, 15:31:57.866
164, -2770.26, -2482.16, -2345.17, -2321.22, 0.000, 0.000, 0.000, 15:31:57.866
165, -2724.05, -2442.07, -2296.33, -2247.68, 0.000, 0.000, 0.000, 15:31:57.866
166, -2740.31, -2441.28, -2313.90, -2256.00, 0.000, 0.000, 0.000, 15:31:57.866
167, -2763.36, -2475.74, -2331.06, -2268.45, 0.000, 0.000, 0.000, 15:31:57.867
168, -2758.26, -2454.37, -2332.59, -2286.37, 0.000, 0.000, 0.000, 15:31:57.867
169, -2726.30, -2443.22, -2296.64, -2225.23, 0.000, 0.000, 0.000, 15:31:57.877
170, -2705.72, -2390.61, -2284.41, -2180.56, 0.000, 0.000, 0.000, 15:31:57.877
171, -2748.24, -2467.83, -2341.02, -2264.63, 0.000, 0.000, 0.000, 15:31:57.892
172, -2757.34, -2471.43, -2349.61, -2316.20, 0.000, 0.000, 0.000, 15:31:57.892
173, -2719.41, -2448.09, -2315.43, -2250.98, 0.000, 0.000, 0.000, 15:31:57.907
174, -2738.67, -2451.55, -2329.14, -2284.24, 0.000, 0.000, 0.000, 15:31:57.907
175, -2740.32, -2453.19, -2330.32, -2273.49, 0.000, 0.000, 0.000, 15:31:57.908
176, -2728.66, -2411.49, -2320.17, -2217.16, 0.000, 0.000, 0.000, 15:31:57.908
177, -2736.97, -2469.99, -2326.40, -2262.77, 0.000, 0.000, 0.000, 15:31:57.923
178, -2717.18, -2407.66, -2299.29, -2195.41, 0.000, 0.000, 0.000, 15:31:57.924
179, -2740.00, -2469.78, -2327.11, -2291.42, 0.000, 0.000, 0.000, 15:31:57.924
180, -2755.15, -2471.81, -2318.03, -2293.85, 0.000, 0.000, 0.000, 15:31:57.924
181, -2725.59, -2431.09, -2308.08, -2252.75, 0.000, 0.000, 0.000, 15:31:57.937
182, -2732.70, -2434.37, -2310.56, -2259.89, 0.000, 0.000, 0.000, 15:31:57.937
183, -2753.31, -2465.43, -2323.42, -2248.33, 0.000, 0.000, 0.000, 15:31:57.952
184, -2762.73, -2475.36, -2340.38, -2290.77, 0.000, 0.000, 0.000, 15:31:57.952
185, -2723.51, -2416.37, -2305.42, -2229.54, 0.000, 0.000, 0.000, 15:31:57.952
186, -2742.44, -2459.65, -2320.23, -2231.26, 0.000, 0.000, 0.000, 15:31:57.952
187, -2773.17, -2491.88, -2351.13, -2295.75, 0.000, 0.000, 0.000, 15:31:57.967
188, -2736.26, -2432.08, -2318.19, -2238.11, 0.000, 0.000, 0.000, 15:31:57.967
189, -2729.90, -2440.63, -2319.36, -2254.23, 0.000, 0.000, 0.000, 15:31:57.984
190, -2717.17, -2436.46, -2282.11, -2228.03, 0.000, 0.000, 0.000, 15:31:57.985
191, -2768.04, -2473.16, -2361.00, -2285.46, 0.000, 0.000, 0.000, 15:31:57.985
192, -2749.04, -2443.77, -2323.16, -2238.92, 0.000, 0.000, 0.000, 15:31:57.985
193, -2733.73, -2448.78, -2318.64, -2251.67, 0.000, 0.000, 0.000, 15:31:57.998
194, -2735.32, -2460.43, -2316.67, -2277.13, 0.000, 0.000, 0.000, 15:31:57.998
195, -2750.99, -2469.97, -2329.19, -2277.90, 0.000, 0.000, 0.000, 15:31:58.016
196, -2757.88, -2475.03, -2342.76, -2267.92, 0.000, 0.000, 0.000, 15:31:58.016
197, -2743.27, -2451.04, -2316.64, -2272.94, 0.000, 0.000, 0.000, 15:31:58.017
198, -2715.27, -2436.86, -2299.61, -2232.77, 0.000, 0.000, 0.000, 15:31:58.017
199, -2750.74, -2473.35, -2328.88, -2277.12, 0.000, 0.000, 0.000, 15:31:58.031
200, -2740.97, -2456.74, -2319.35, -2250.50, 0.000, 0.000, 0.000, 15:31:58.032
0, -2724.55, -2435.54, -2295.07, -2245.70, 0.000, 0.000, 0.000, 15:31:58.032
1, -2720.86, -2425.46, -2298.19, -2229.62, 0.000, 0.000, 0.000, 15:31:58.042
2, -2750.55, -2458.68, -2332.49, -2255.14, 0.000, 0.000, 0.000, 15:31:58.042
3, -2757.28, -2475.04, -2340.79, -2259.83, 0.000, 0.000, 0.000, 15:31:58.068
4, -2729.36, -2437.70, -2300.69, -2225.44, 0.000, 0.000, 0.000, 15:31:58.068
5, -2719.00, -2401.39, -2297.15, -2189.52, 0.000, 0.000, 0.000, 15:31:58.069
6, -2761.93, -2505.17, -2341.13, -2285.54, 0.000, 0.000, 0.000, 15:31:58.069
7, -2760.40, -2465.83, -2344.25, -2291.84, 0.000, 0.000, 0.000, 15:31:58.077
8, -2739.16, -2451.80, -2316.34, -2273.35, 0.000, 0.000, 0.000, 15:31:58.077
9, -2710.54, -2414.57, -2286.67, -2202.92, 0.000, 0.000, 0.000, 15:31:58.086
10, -2764.46, -2487.15, -2338.80, -2312.62, 0.000, 0.000, 0.000, 15:31:58.087
11, -2751.03, -2471.37, -2320.44, -2273.15, 0.000, 0.000, 0.000, 15:31:58.087
12, -2718.72, -2428.39, -2283.40, -2234.60, 0.000, 0.000, 0.000, 15:31:58.087
13, -2708.06, -2409.54, -2286.70, -2212.74, 0.000, 0.000, 0.000, 15:31:58.102
14, -2742.19, -2476.03, -2325.25, -2268.26, 0.000, 0.000, 0.000, 15:31:58.102
15, -2746.10, -2449.51, -2318.92, -2215.57, 0.000, 0.000, 0.000, 15:31:58.117
16, -2740.51, -2469.98, -2316.45, -2272.64, 0.000, 0.000, 0.000, 15:31:58.117
17, -2723.64, -2435.33, -2277.03, -2232.27, 0.000, 0.000, 0.000, 15:31:58.117
18, -2764.82, -2479.13, -2354.15, -2298.89, 0.000, 0.000, 0.000, 15:31:58.117
19, -2743.05, -2448.22, -2321.11, -2219.12, 0.000, 0.000, 0.000, 15:31:58.132
20, -2742.92, -2450.21, -2321.92, -2248.03, 0.000, 0.000, 0.000, 15:31:58.132
21, -2742.75, -2459.88, -2323.26, -2277.77, 0.000, 0.000, 0.000, 15:31:58.149
22, -2751.51, -2468.99, -2333.14, -2272.65, 0.000, 0.000, 0.000, 15:31:58.149
23, -2735.88, -2453.82, -2322.25, -2250.47, 0.000, 0.000, 0.000, 15:31:58.149
24, -2728.96, -2450.91, -2292.20, -2257.83, 0.000, 0.000, 0.000, 15:31:58.149
25, -2725.27, -2439.05, -2323.74, -2244.04, 0.000, 0.000, 0.000, 15:31:58.180
26, -2750.48, -2463.11, -2335.82, -2237.81, 0.000, 0.000, 0.000, 15:31:58.180
27, -2760.71, -2463.20, -2337.94, -2289.90, 0.000, 0.000, 0.000, 15:31:58.181
28, -2736.68, -2453.11, -2320.74, -2254.69, 0.000, 0.000, 0.000, 15:31:58.181
29, -2726.87, -2443.76, -2302.97, -2250.61, 0.000, 0.000, 0.000, 15:31:58.181
30, -2750.57, -2460.66, -2324.70, -2228.37, 0.000, 0.000, 0.000, 15:31:58.181
31, -2749.04, -2463.50, -2326.09, -2274.70, 0.000, 0.000, 0.000, 15:31:58.210
32, -2730.11, -2445.24, -2302.64, -2236.36, 0.000, 0.000, 0.000, 15:31:58.211
33, -2723.67, -2419.60, -2295.58, -2222.01, 0.000, 0.000, 0.000, 15:31:58.211
34, -2766.52, -2476.15, -2341.89, -2263.09, 0.000, 0.000, 0.000, 15:31:58.212
35, -2776.28, -2472.34, -2346.04, -2272.91, 0.000, 0.000, 0.000, 15:31:58.215
36, -2736.77, -2422.28, -2310.52, -2218.43, 0.000, 0.000, 0.000, 15:31:58.215
37, -2729.02, -2457.15, -2256.42, -2243.85, 0.000, 0.000, 0.000, 15:31:58.234
38, -2760.93, -2476.25, -2351.82, -2275.65, 0.000, 0.000, 0.000, 15:31:58.234
39, -2768.72, -2475.01, -2353.07, -2264.19, 0.000, 0.000, 0.000, 15:31:58.247
40, -2752.14, -2466.78, -2329.70, -2256.32, 0.000, 0.000, 0.000, 15:31:58.247
41, -2719.65, -2430.81, -2297.41, -2194.34, 0.000, 0.000, 0.000, 15:31:58.247
42, -2742.66, -2453.23, -2315.52, -2218.68, 0.000, 0.000, 0.000, 15:31:58.248
43, -2780.91, -2516.78, -2351.79, -2319.21, 0.000, 0.000, 0.000, 15:31:58.271
44, -2729.41, -2460.23, -2306.26, -2244.48, 0.000, 0.000, 0.000, 15:31:58.272
45, -2746.93, -2453.79, -2313.80, -2277.13, 0.000, 0.000, 0.000, 15:31:58.273
46, -2762.77, -2476.63, -2346.14, -2264.99, 0.000, 0.000, 0.000, 15:31:58.273
47, -2764.02, -2463.30, -2334.97, -2240.85, 0.000, 0.000, 0.000, 15:31:58.274
48, -2753.22, -2472.06, -2324.22, -2295.90, 0.000, 0.000, 0.000, 15:31:58.274
49, -2712.40, -2415.86, -2302.30, -2224.60, 0.000, 0.000, 0.000, 15:31:58.286
50, -2741.40, -2459.97, -2319.29, -2228.19, 0.000, 0.000, 0.000, 15:31:58.286
51, -2744.20, -2464.54, -2311.39, -2252.29, 0.000, 0.000, 0.000, 15:31:58.303
52, -2732.68, -2449.17, -2315.34, -2273.31, 0.000, 0.000, 0.000, 15:31:58.304
53, -2714.34, -2432.56, -2287.33, -2221.07, 0.000, 0.000, 0.000, 15:31:58.304
54, -2743.15, -2459.34, -2321.35, -2238.69, 0.000, 0.000, 0.000, 15:31:58.304
55, -2753.54, -2468.16, -2330.57, -2266.30, 0.000, 0.000, 0.000, 15:31:58.320
56, -2736.48, -2448.03, -2308.71, -2248.32, 0.000, 0.000, 0.000, 15:31:58.320
57, -2717.76, -2415.92, -2295.32, -2191.39, 0.000, 0.000, 0.000, 15:31:58.329
58, -2754.35, -2479.89, -2332.76, -2278.62, 0.000, 0.000, 0.000, 15:31:58.329
59, -2762.10, -2476.75, -2336.16, -2271.98, 0.000, 0.000, 0.000, 15:31:58.331
60, -2723.08, -2438.57, -2290.24, -2212.99, 0.000, 0.000, 0.000, 15:31:58.331
61, -2730.71, -2446.97, -2309.26, -2207.34, 0.000, 0.000, 0.000, 15:31:58.344
62, -2761.53, -2492.87, -2347.75, -2301.55, 0.000, 0.000, 0.000, 15:31:58.345
63, -2770.11, -2483.49, -2339.55, -2289.35, 0.000, 0.000, 0.000, 15:31:58.413
64, -2744.06, -2459.03, -2317.62, -2250.87, 0.000, 0.000, 0.000, 15:31:58.413
65, -2719.05, -2428.08, -2291.35, -2220.93, 0.000, 0.000, 0.000, 15:31:58.414
66, -2739.10, -2441.01, -2310.70, -2201.59, 0.000, 0.000, 0.000, 15:31:58.414
67, -2762.35, -2458.91, -2343.07, -2291.64, 0.000, 0.000, 0.000, 15:31:58.415
68, -2737.23, -2468.37, -2305.14, -2247.87, 0.000, 0.000, 0.000, 15:31:58.415
69, -2730.12, -2442.88, -2304.62, -2253.69, 0.000, 0.000, 0.000, 15:31:58.416
70, -2747.82, -2452.49, -2317.96, -2222.05, 0.000, 0.000, 0.000, 15:31:58.417
71, -2756.15, -2452.56, -2318.11, -2259.61, 0.000, 0.000, 0.000, 15:31:58.417
72, -2745.95, -2467.09, -2300.48, -2275.35, 0.000, 0.000, 0.000, 15:31:58.417
73, -2727.16, -2428.62, -2299.65, -2234.71, 0.000, 0.000, 0.000, 15:31:58.418
74, -2750.66, -2450.58, -2332.01, -2236.59, 0.000, 0.000, 0.000, 15:31:58.426
75, -2755.34, -2466.77, -2335.86, -2288.44, 0.000, 0.000, 0.000, 15:31:58.427
76, -2739.36, -2453.97, -2310.21, -2251.03, 0.000, 0.000, 0.000, 15:31:58.427
77, -2724.41, -2423.34, -2297.38, -2222.88, 0.000, 0.000, 0.000, 15:31:58.427
78, -2754.26, -2456.06, -2332.30, -2230.70, 0.000, 0.000, 0.000, 15:31:58.427
79, -2777.73, -2489.87, -2358.83, -2301.10, 0.000, 0.000, 0.000, 15:31:58.432
80, -2760.17, -2471.47, -2347.85, -2289.02, 0.000, 0.000, 0.000, 15:31:58.433
81, -2722.01, -2424.44, -2300.12, -2241.91, 0.000, 0.000, 0.000, 15:31:58.446
82, -2725.24, -2436.83, -2311.54, -2208.56, 0.000, 0.000, 0.000, 15:31:58.447
83, -2760.88, -2484.21, -2309.15, -2283.82, 0.000, 0.000, 0.000, 15:31:58.447
84, -2734.30, -2436.09, -2328.54, -2230.30, 0.000, 0.000, 0.000, 15:31:58.447
85, -2723.43, -2431.91, -2292.30, -2234.21, 0.000, 0.000, 0.000, 15:31:58.495
86, -2753.79, -2459.20, -2325.22, -2260.11, 0.000, 0.000, 0.000, 15:31:58.496
87, -2767.16, -2478.60, -2335.29, -2268.35, 0.000, 0.000, 0.000, 15:31:58.511
88, -2743.12, -2455.04, -2314.19, -2237.42, 0.000, 0.000, 0.000, 15:31:58.511
89, -2725.05, -2433.72, -2298.98, -2219.24, 0.000, 0.000, 0.000, 15:31:58.513
90, -2758.21, -2456.92, -2324.10, -2253.18, 0.000, 0.000, 0.000, 15:31:58.513
91, -2769.31, -2468.70, -2335.74, -2261.60, 0.000, 0.000, 0.000, 15:31:58.513
92, -2747.90, -2463.11, -2325.03, -2258.06, 0.000, 0.000, 0.000, 15:31:58.513
93, -2719.89, -2427.17, -2293.31, -2198.37, 0.000, 0.000, 0.000, 15:31:58.513
94, -2743.89, -2451.24, -2310.96, -2248.59, 0.000, 0.000, 0.000, 15:31:58.513
95, -2772.57, -2470.04, -2346.75, -2288.02, 0.000, 0.000, 0.000, 15:31:58.513
96, -2765.68, -2469.53, -2340.29, -2269.62, 0.000, 0.000, 0.000, 15:31:58.513
97, -2718.10, -2416.70, -2292.09, -2189.87, 0.000, 0.000, 0.000, 15:31:58.546
98, -2740.36, -2438.59, -2321.08, -2264.86, 0.000, 0.000, 0.000, 15:31:58.546
99, -2761.38, -2480.23, -2328.24, -2267.10, 0.000, 0.000, 0.000, 15:31:58.565
100, -2748.95, -2465.63, -2320.55, -2260.83, 0.000, 0.000, 0.000, 15:31:58.565
101, -2734.91, -2438.51, -2305.47, -2229.31, 0.000, 0.000, 0.000, 15:31:58.566
102, -2760.16, -2467.91, -2331.40, -2278.86, 0.000, 0.000, 0.000, 15:31:58.566
103, -2751.81, -2446.25, -2300.40, -2241.60, 0.000, 0.000, 0.000, 15:31:58.632
104, -2737.19, -2463.25, -2304.16, -2230.49, 0.000, 0.000, 0.000, 15:31:58.632
105, -2736.45, -2439.88, -2308.00, -2245.18, 0.000, 0.000, 0.000, 15:31:58.632
106, -2737.70, -2453.73, -2308.42, -2240.38, 0.000, 0.000, 0.000, 15:31:58.632
107, -2760.24, -2470.66, -2331.37, -2268.34, 0.000, 0.000, 0.000, 15:31:58.651
108, -2741.80, -2451.57, -2318.52, -2246.36, 0.000, 0.000, 0.000, 15:31:58.651
109, -2710.38, -2419.43, -2286.48, -2209.45, 0.000, 0.000, 0.000, 15:31:58.651
110, -2743.30, -2454.48, -2319.46, -2255.00, 0.000, 0.000, 0.000, 15:31:58.651
111, -2754.01, -2447.08, -2325.39, -2205.77, 0.000, 0.000, 0.000, 15:31:58.652
112, -2738.56, -2461.66, -2313.98, -2255.81, 0.000, 0.000, 0.000, 15:31:58.652
113, -2730.94, -2443.61, -2305.76, -2244.48, 0.000, 0.000, 0.000, 15:31:58.662
114, -2749.58, -2455.97, -2327.91, -2268.82, 0.000, 0.000, 0.000, 15:31:58.662
115, -2756.44, -2451.41, -2308.45, -2276.74, 0.000, 0.000, 0.000, 15:31:58.663
116, -2741.24, -2452.58, -2329.16, -2238.59, 0.000, 0.000, 0.000, 15:31:58.663
117, -2719.72, -2423.20, -2298.49, -2235.82, 0.000, 0.000, 0.000, 15:31:58.665
118, -2742.81, -2455.76, -2323.87, -2260.25, 0.000, 0.000, 0.000, 15:31:58.666
119, -2756.44, -2456.07, -2316.12, -2251.49, 0.000, 0.000, 0.000, 15:31:58.666
