%OpenBCI Raw EEG Data
%
%Sample Rate = 200.0 Hz
%First Column = SampleIndex
%Last Column = Timestamp 
%Other Columns = EEG data in microvolts followed by Accel Data (in G) interleaved with Aux Data
0, -6255.94, -15686.28, -5701.82, -4760.02, 0.000, 0.000, 0.000, 15:26:24.321
1, -6551.22, -15686.28, -6090.50, -4782.98, 0.000, 0.000, 0.000, 15:26:24.338
2, -6907.58, -15686.28, -6495.53, -5273.38, 0.000, 0.000, 0.000, 15:26:24.339
3, -6989.44, -15686.28, -6589.37, -5474.00, 0.000, 0.000, 0.000, 15:26:24.351
4, -6846.33, -15686.28, -6385.62, -5426.07, 0.000, 0.000, 0.000, 15:26:24.352
5, -6642.30, -15686.28, -6279.46, -5329.20, 0.000, 0.000, 0.000, 15:26:24.357
6, -6424.44, -15686.28, -6056.51, -5199.28, 0.000, 0.000, 0.000, 15:26:24.357
7, -6206.39, -15686.28, -5689.89, -5087.33, 0.000, 0.000, 0.000, 15:26:24.365
8, -5978.86, -15686.28, -5525.31, -4880.81, 0.000, 0.000, 0.000, 15:26:24.366
9, -5744.45, -15650.82, -5318.11, -4691.40, 0.000, 0.000, 0.000, 15:26:24.379
10, -5549.75, -14888.83, -5116.90, -4589.22, 0.000, 0.000, 0.000, 15:26:24.379
11, -5352.19, -13927.77, -4807.37, -4421.23, 0.000, 0.000, 0.000, 15:26:24.379
12, -5172.80, -13052.69, -4744.14, -4350.66, 0.000, 0.000, 0.000, 15:26:24.380
13, -5026.16, -12279.87, -4567.49, -4182.14, 0.000, 0.000, 0.000, 15:26:24.402
14, -4883.44, -11569.18, -4395.43, -4126.16, 0.000, 0.000, 0.000, 15:26:24.402
15, -4780.31, -10945.98, -4280.78, -4009.15, 0.000, 0.000, 0.000, 15:26:24.422
16, -4668.32, -10390.02, -4101.86, -3970.25, 0.000, 0.000, 0.000, 15:26:24.423
17, -4554.33, -9843.39, -4066.77, -3842.96, 0.000, 0.000, 0.000, 15:26:24.468
18, -4476.73, -9372.68, -3990.54, -3818.22, 0.000, 0.000, 0.000, 15:26:24.469
19, -4386.31, -8956.47, -3919.32, -3769.99, 0.000, 0.000, 0.000, 15:26:24.489
20, -4317.87, -8568.58, -3815.84, -3702.26, 0.000, 0.000, 0.000, 15:26:24.490
21, -4270.92, -8232.45, -3776.49, -3694.91, 0.000, 0.000, 0.000, 15:26:24.490
22, -4202.94, -7908.95, -3581.00, -3628.46, 0.000, 0.000, 0.000, 15:26:24.490
23, -4155.79, -7630.95, -3545.22, -3559.00, 0.000, 0.000, 0.000, 15:26:24.491
24, -4086.59, -7353.11, -3561.75, -3530.73, 0.000, 0.000, 0.000, 15:26:24.491
25, -4032.34, -7117.74, -3460.21, -3464.88, 0.000, 0.000, 0.000, 15:26:24.491
26, -4001.74, -6911.79, -3469.02, -3455.46, 0.000, 0.000, 0.000, 15:26:24.492
27, -3951.44, -6697.15, -3347.78, -3430.49, 0.000, 0.000, 0.000, 15:26:24.496
28, -3909.08, -6510.07, -3400.23, -3370.91, 0.000, 0.000, 0.000, 15:26:24.497
29, -3888.40, -6397.39, -3365.33, -3376.27, 0.000, 0.000, 0.000, 15:26:24.497
30, -3876.20, -6249.59, -3380.20, -3407.65, 0.000, 0.000, 0.000, 15:26:24.500
31, -3847.41, -6103.76, -3302.44, -3336.02, 0.000, 0.000, 0.000, 15:26:24.500
32, -3824.10, -6000.07, -3275.95, -3311.02, 0.000, 0.000, 0.000, 15:26:24.500
33, -3790.77, -5869.31, -3222.13, -3335.21, 0.000, 0.000, 0.000, 15:26:24.501
34, -3788.46, -5779.34, -3209.63, -3287.53, 0.000, 0.000, 0.000, 15:26:24.501
35, -3779.85, -5705.32, -3194.08, -3339.29, 0.000, 0.000, 0.000, 15:26:24.501
36, -3768.68, -5634.16, -3202.23, -3237.76, 0.000, 0.000, 0.000, 15:26:24.502
37, -3753.63, -5546.91, -3209.75, -3284.19, 0.000, 0.000, 0.000, 15:26:24.781
38, -3729.08, -5490.24, -3169.40, -3245.38, 0.000, 0.000, 0.000, 15:26:24.782
39, -3717.21, -5418.02, -3156.95, -3249.81, 0.000, 0.000, 0.000, 15:26:24.782
40, -3704.88, -5372.39, -3108.30, -3255.60, 0.000, 0.000, 0.000, 15:26:24.783
41, -3706.62, -5319.02, -3153.00, -3245.40, 0.000, 0.000, 0.000, 15:26:24.806
42, -3692.12, -5265.25, -3154.18, -3232.96, 0.000, 0.000, 0.000, 15:26:24.807
43, -3700.96, -5255.44, -3117.15, -3225.19, 0.000, 0.000, 0.000, 15:26:24.808
44, -3689.10, -5201.22, -3121.34, -3191.07, 0.000, 0.000, 0.000, 15:26:24.808
45, -3681.40, -5156.02, -3174.22, -3227.69, 0.000, 0.000, 0.000, 15:26:24.810
46, -3654.05, -5104.10, -3114.04, -3192.49, 0.000, 0.000, 0.000, 15:26:24.810
47, -3663.83, -5098.09, -3110.62, -3218.96, 0.000, 0.000, 0.000, 15:26:24.810
48, -3663.83, -5068.00, -3113.77, -3210.18, 0.000, 0.000, 0.000, 15:26:24.810
49, -3664.99, -5055.34, -3069.31, -3192.25, 0.000, 0.000, 0.000, 15:26:24.811
50, -3636.65, -5022.58, -3055.60, -3161.33, 0.000, 0.000, 0.000, 15:26:24.811
51, -3661.12, -5022.57, -3089.46, -3211.89, 0.000, 0.000, 0.000, 15:26:24.811
52, -3653.03, -4996.16, -3091.22, -3204.15, 0.000, 0.000, 0.000, 15:26:24.811
53, -3631.78, -4968.53, -3051.59, -3186.34, 0.000, 0.000, 0.000, 15:26:24.812
54, -3615.82, -4946.99, -3040.12, -3195.94, 0.000, 0.000, 0.000, 15:26:24.812
55, -3629.36, -4942.31, -3080.48, -3203.70, 0.000, 0.000, 0.000, 15:26:24.814
56, -3639.03, -4928.30, -3126.54, -3179.47, 0.000, 0.000, 0.000, 15:26:24.814
57, -3622.15, -4903.55, -3070.85, -3156.42, 0.000, 0.000, 0.000, 15:26:24.814
58, -3623.08, -4897.14, -3036.50, -3188.04, 0.000, 0.000, 0.000, 15:26:24.815
59, -3637.08, -4894.95, -3102.64, -3188.35, 0.000, 0.000, 0.000, 15:26:24.815
60, -3627.27, -4870.59, -3073.81, -3188.89, 0.000, 0.000, 0.000, 15:26:24.816
61, -3613.60, -4852.57, -3022.06, -3170.63, 0.000, 0.000, 0.000, 15:26:24.816
62, -3607.20, -4856.22, -3068.12, -3195.86, 0.000, 0.000, 0.000, 15:26:24.816
63, -3630.09, -4859.01, -3100.82, -3205.35, 0.000, 0.000, 0.000, 15:26:24.817
64, -3614.24, -4836.86, -3063.69, -3142.74, 0.000, 0.000, 0.000, 15:26:24.831
65, -3585.88, -4823.18, -3022.48, -3147.29, 0.000, 0.000, 0.000, 15:26:24.832
66, -3607.78, -4837.44, -3032.82, -3190.00, 0.000, 0.000, 0.000, 15:26:24.832
67, -3598.51, -4815.57, -3017.65, -3157.92, 0.000, 0.000, 0.000, 15:26:24.833
68, -3599.79, -4815.54, -3071.79, -3169.11, 0.000, 0.000, 0.000, 15:26:24.833
69, -3604.48, -4807.26, -3066.97, -3158.36, 0.000, 0.000, 0.000, 15:26:24.833
70, -3601.88, -4806.18, -3034.83, -3147.35, 0.000, 0.000, 0.000, 15:26:24.834
71, -3619.36, -4814.76, -3081.98, -3178.44, 0.000, 0.000, 0.000, 15:26:24.834
72, -3605.82, -4793.03, -3033.44, -3162.81, 0.000, 0.000, 0.000, 15:26:24.834
73, -3593.78, -4781.68, -3021.63, -3164.19, 0.000, 0.000, 0.000, 15:26:24.890
74, -3593.70, -4779.58, -3004.84, -3133.09, 0.000, 0.000, 0.000, 15:26:24.891
75, -3589.95, -4771.05, -3027.07, -3139.30, 0.000, 0.000, 0.000, 15:26:24.892
76, -3574.10, -4761.02, -3028.67, -3143.31, 0.000, 0.000, 0.000, 15:26:24.892
77, -3573.59, -4750.15, -2991.45, -3140.69, 0.000, 0.000, 0.000, 15:26:24.893
78, -3596.45, -4770.01, -3056.82, -3163.89, 0.000, 0.000, 0.000, 15:26:24.893
79, -3601.53, -4778.35, -3010.40, -3152.84, 0.000, 0.000, 0.000, 15:26:24.893
80, -3592.92, -4763.12, -3030.74, -3169.11, 0.000, 0.000, 0.000, 15:26:24.894
81, -3581.73, -4750.74, -2997.18, -3155.14, 0.000, 0.000, 0.000, 15:26:24.894
82, -3568.86, -4745.99, -2992.83, -3136.04, 0.000, 0.000, 0.000, 15:26:24.894
83, -3587.92, -4757.43, -3054.16, -3183.36, 0.000, 0.000, 0.000, 15:26:24.894
84, -3574.71, -4752.90, -3028.47, -3146.09, 0.000, 0.000, 0.000, 15:26:24.895
85, -3571.40, -4741.50, -2971.66, -3156.77, 0.000, 0.000, 0.000, 15:26:24.895
86, -3584.88, -4744.01, -3077.77, -3112.37, 0.000, 0.000, 0.000, 15:26:24.895
87, -3574.30, -4743.95, -3015.55, -3149.08, 0.000, 0.000, 0.000, 15:26:24.896
88, -3574.35, -4734.96, -3058.12, -3170.98, 0.000, 0.000, 0.000, 15:26:24.896
89, -3562.39, -4721.72, -3018.50, -3124.51, 0.000, 0.000, 0.000, 15:26:24.896
90, -3574.30, -4733.89, -2999.99, -3132.76, 0.000, 0.000, 0.000, 15:26:24.896
91, -3572.72, -4730.25, -3067.23, -3160.51, 0.000, 0.000, 0.000, 15:26:24.896
92, -3567.63, -4724.00, -3021.50, -3157.55, 0.000, 0.000, 0.000, 15:26:24.897
93, -3573.42, -4718.04, -3035.79, -3157.04, 0.000, 0.000, 0.000, 15:26:24.897
94, -3558.66, -4712.21, -3034.23, -3134.20, 0.000, 0.000, 0.000, 15:26:24.899
95, -3571.57, -4716.13, -2946.15, -3101.38, 0.000, 0.000, 0.000, 15:26:24.900
96, -3557.40, -4708.73, -3008.82, -3120.29, 0.000, 0.000, 0.000, 15:26:24.900
97, -3543.63, -4702.26, -2983.53, -3141.46, 0.000, 0.000, 0.000, 15:26:24.900
98, -3578.51, -4713.87, -2995.00, -3151.86, 0.000, 0.000, 0.000, 15:26:24.901
99, -3569.32, -4725.47, -3044.88, -3160.58, 0.000, 0.000, 0.000, 15:26:24.901
100, -3576.07, -4728.57, -2977.43, -3114.61, 0.000, 0.000, 0.000, 15:26:24.901
101, -3564.43, -4715.42, -2964.63, -3135.04, 0.000, 0.000, 0.000, 15:26:24.902
102, -3567.66, -4709.98, -3027.81, -3153.96, 0.000, 0.000, 0.000, 15:26:24.902
103, -3559.35, -4712.32, -2976.49, -3135.26, 0.000, 0.000, 0.000, 15:26:24.910
104, -3547.75, -4706.54, -3025.02, -3151.82, 0.000, 0.000, 0.000, 15:26:24.911
105, -3539.19, -4692.33, -2971.22, -3105.78, 0.000, 0.000, 0.000, 15:26:24.911
106, -3567.83, -4706.67, -2998.23, -3141.70, 0.000, 0.000, 0.000, 15:26:24.943
107, -3573.70, -4717.33, -3049.36, -3158.79, 0.000, 0.000, 0.000, 15:26:24.943
108, -3574.50, -4717.74, -3008.85, -3124.86, 0.000, 0.000, 0.000, 15:26:24.943
109, -3555.35, -4699.72, -3017.72, -3147.53, 0.000, 0.000, 0.000, 15:26:24.944
110, -3548.30, -4693.94, -3063.63, -3140.21, 0.000, 0.000, 0.000, 15:26:24.944
111, -3557.42, -4700.29, -3043.59, -3147.87, 0.000, 0.000, 0.000, 15:26:24.944
112, -3549.75, -4696.02, -3007.61, -3144.69, 0.000, 0.000, 0.000, 15:26:24.945
113, -3548.39, -4701.21, -2991.93, -3129.10, 0.000, 0.000, 0.000, 15:26:24.945
114, -3564.41, -4715.79, -3035.88, -3148.12, 0.000, 0.000, 0.000, 15:26:24.945
115, -3574.10, -4727.41, -3018.90, -3203.36, 0.000, 0.000, 0.000, 15:26:24.945
116, -3559.85, -4700.47, -3050.69, -3148.28, 0.000, 0.000, 0.000, 15:26:24.945
117, -3546.94, -4686.22, -3025.80, -3147.30, 0.000, 0.000, 0.000, 15:26:24.946
118, -3552.37, -4686.35, -2992.17, -3170.38, 0.000, 0.000, 0.000, 15:26:24.946
119, -3556.15, -4693.08, -3036.81, -3125.42, 0.000, 0.000, 0.000, 15:26:24.946
120, -3559.60, -4699.00, -3025.46, -3176.21, 0.000, 0.000, 0.000, 15:26:24.946
121, -3542.94, -4682.51, -3014.77, -3111.73, 0.000, 0.000, 0.000, 15:26:24.947
122, -3552.24, -4678.13, -2980.94, -3117.91, 0.000, 0.000, 0.000, 15:26:24.947
123, -3553.71, -4693.29, -3003.23, -3149.36, 0.000, 0.000, 0.000, 15:26:24.989
124, -3547.98, -4681.54, -3000.86, -3104.40, 0.000, 0.000, 0.000, 15:26:24.990
125, -3533.62, -4671.34, -3022.34, -3131.09, 0.000, 0.000, 0.000, 15:26:24.991
126, -3554.72, -4680.46, -3022.88, -3092.14, 0.000, 0.000, 0.000, 15:26:24.991
127, -3571.19, -4700.19, -3028.49, -3149.86, 0.000, 0.000, 0.000, 15:26:24.993
128, -3566.36, -4701.76, -2980.23, -3140.36, 0.000, 0.000, 0.000, 15:26:24.994
129, -3563.40, -4697.91, -3011.83, -3134.93, 0.000, 0.000, 0.000, 15:26:24.996
130, -3564.68, -4687.35, -3011.29, -3179.77, 0.000, 0.000, 0.000, 15:26:24.996
131, -3555.78, -4689.08, -3018.31, -3165.82, 0.000, 0.000, 0.000, 15:26:24.997
132, -3547.15, -4674.88, -3020.67, -3134.17, 0.000, 0.000, 0.000, 15:26:24.997
133, -3544.25, -4667.08, -3063.15, -3107.55, 0.000, 0.000, 0.000, 15:26:24.997
134, -3550.92, -4682.57, -2993.76, -3118.34, 0.000, 0.000, 0.000, 15:26:24.997
135, -3533.13, -4680.96, -2995.26, -3106.71, 0.000, 0.000, 0.000, 15:26:25.009
136, -3546.76, -4678.05, -3013.40, -3112.44, 0.000, 0.000, 0.000, 15:26:25.009
137, -3525.96, -4659.62, -3013.00, -3120.88, 0.000, 0.000, 0.000, 15:26:25.010
138, -3516.17, -4663.72, -3042.47, -3138.54, 0.000, 0.000, 0.000, 15:26:25.010
139, -3530.33, -4666.11, -3045.73, -3101.24, 0.000, 0.000, 0.000, 15:26:25.023
140, -3530.94, -4668.10, -3037.58, -3181.42, 0.000, 0.000, 0.000, 15:26:25.024
141, -3545.80, -4667.63, -2954.98, -3148.86, 0.000, 0.000, 0.000, 15:26:25.040
142, -3548.67, -4674.29, -2961.65, -3129.58, 0.000, 0.000, 0.000, 15:26:25.041
143, -3551.97, -4676.88, -3022.69, -3125.32, 0.000, 0.000, 0.000, 15:26:25.042
144, -3559.39, -4690.63, -3039.44, -3167.59, 0.000, 0.000, 0.000, 15:26:25.043
145, -3548.51, -4684.74, -2976.07, -3135.41, 0.000, 0.000, 0.000, 15:26:25.053
146, -3554.33, -4691.53, -3019.50, -3139.63, 0.000, 0.000, 0.000, 15:26:25.054
147, -3559.21, -4684.58, -2958.63, -3175.99, 0.000, 0.000, 0.000, 15:26:25.095
148, -3567.69, -4687.46, -2991.82, -3187.75, 0.000, 0.000, 0.000, 15:26:25.095
149, -3554.17, -4671.36, -2998.12, -3127.42, 0.000, 0.000, 0.000, 15:26:25.095
150, -3560.40, -4679.70, -2966.77, -3158.93, 0.000, 0.000, 0.000, 15:26:25.096
151, -3556.01, -4685.57, -3030.29, -3147.22, 0.000, 0.000, 0.000, 15:26:25.098
152, -3553.40, -4678.89, -3048.48, -3170.09, 0.000, 0.000, 0.000, 15:26:25.099
153, -3542.09, -4663.60, -3019.75, -3131.81, 0.000, 0.000, 0.000, 15:26:25.100
154, -3541.98, -4674.94, -2969.04, -3137.83, 0.000, 0.000, 0.000, 15:26:25.100
155, -3544.83, -4683.08, -3026.90, -3117.20, 0.000, 0.000, 0.000, 15:26:25.175
156, -3540.40, -4664.10, -2976.58, -3110.66, 0.000, 0.000, 0.000, 15:26:25.176
157, -3540.89, -4659.70, -2989.42, -3100.34, 0.000, 0.000, 0.000, 15:26:25.177
158, -3545.27, -4667.91, -3044.28, -3106.70, 0.000, 0.000, 0.000, 15:26:25.177
159, -3537.58, -4673.16, -3030.55, -3099.31, 0.000, 0.000, 0.000, 15:26:25.178
160, -3542.67, -4669.00, -3002.75, -3167.19, 0.000, 0.000, 0.000, 15:26:25.178
161, -3533.50, -4663.11, -2980.06, -3135.09, 0.000, 0.000, 0.000, 15:26:25.178
162, -3552.38, -4670.74, -3022.43, -3118.48, 0.000, 0.000, 0.000, 15:26:25.178
163, -3580.25, -4694.60, -3086.79, -3139.61, 0.000, 0.000, 0.000, 15:26:25.179
164, -3562.13, -4689.76, -3069.70, -3169.89, 0.000, 0.000, 0.000, 15:26:25.179
165, -3557.31, -4674.57, -2975.49, -3101.60, 0.000, 0.000, 0.000, 15:26:25.179
166, -3541.67, -4678.92, -3018.65, -3159.33, 0.000, 0.000, 0.000, 15:26:25.179
167, -3546.30, -4671.92, -3020.63, -3135.01, 0.000, 0.000, 0.000, 15:26:25.197
168, -3540.93, -4664.32, -3043.67, -3114.26, 0.000, 0.000, 0.000, 15:26:25.198
169, -3540.73, -4658.85, -2967.59, -3132.48, 0.000, 0.000, 0.000, 15:26:25.198
170, -3537.03, -4658.86, -2950.12, -3104.10, 0.000, 0.000, 0.000, 15:26:25.198
171, -3534.95, -4658.57, -2934.37, -3080.64, 0.000, 0.000, 0.000, 15:26:25.198
172, -3539.07, -4656.31, -2971.79, -3142.59, 0.000, 0.000, 0.000, 15:26:25.199
173, -3539.02, -4651.92, -3007.18, -3156.58, 0.000, 0.000, 0.000, 15:26:25.216
174, -3533.34, -4651.10, -3039.06, -3150.50, 0.000, 0.000, 0.000, 15:26:25.216
175, -3538.55, -4664.11, -3017.81, -3173.58, 0.000, 0.000, 0.000, 15:26:25.216
176, -3533.05, -4660.01, -2959.84, -3142.92, 0.000, 0.000, 0.000, 15:26:25.217
177, -3552.91, -4667.06, -2954.47, -3138.94, 0.000, 0.000, 0.000, 15:26:25.221
178, -3542.48, -4664.03, -2989.72, -3120.24, 0.000, 0.000, 0.000, 15:26:25.221
179, -3533.48, -4666.33, -2974.59, -3147.80, 0.000, 0.000, 0.000, 15:26:25.222
180, -3520.45, -4649.96, -3004.76, -3070.72, 0.000, 0.000, 0.000, 15:26:25.222
181, -3511.89, -4644.08, -2974.84, -3121.17, 0.000, 0.000, 0.000, 15:26:25.240
182, -3532.63, -4652.03, -3049.55, -3144.00, 0.000, 0.000, 0.000, 15:26:25.240
183, -3529.78, -4656.65, -3035.87, -3091.73, 0.000, 0.000, 0.000, 15:26:25.249
184, -3546.88, -4655.62, -2963.53, -3159.71, 0.000, 0.000, 0.000, 15:26:25.250
185, -3530.88, -4645.66, -2989.04, -3129.74, 0.000, 0.000, 0.000, 15:26:25.250
186, -3547.19, -4666.49, -3064.54, -3161.92, 0.000, 0.000, 0.000, 15:26:25.250
187, -3556.63, -4674.74, -3012.40, -3155.68, 0.000, 0.000, 0.000, 15:26:25.381
188, -3545.23, -4667.99, -3041.47, -3146.48, 0.000, 0.000, 0.000, 15:26:25.382
189, -3530.86, -4648.43, -3013.61, -3108.42, 0.000, 0.000, 0.000, 15:26:25.382
190, -3536.06, -4662.63, -3027.04, -3099.64, 0.000, 0.000, 0.000, 15:26:25.382
191, -3551.17, -4666.69, -3078.14, -3124.09, 0.000, 0.000, 0.000, 15:26:25.383
192, -3544.10, -4659.72, -3008.19, -3098.92, 0.000, 0.000, 0.000, 15:26:25.383
193, -3525.40, -4643.56, -3007.13, -3118.29, 0.000, 0.000, 0.000, 15:26:25.383
194, -3523.27, -4645.49, -2982.85, -3182.37, 0.000, 0.000, 0.000, 15:26:25.383
195, -3535.09, -4657.42, -2966.07, -3159.53, 0.000, 0.000, 0.000, 15:26:25.384
196, -3534.29, -4658.01, -3020.85, -3084.79, 0.000, 0.000, 0.000, 15:26:25.384
197, -3526.95, -4657.55, -2978.27, -3133.42, 0.000, 0.000, 0.000, 15:26:25.384
198, -3532.58, -4650.03, -3028.88, -3124.71, 0.000, 0.000, 0.000, 15:26:25.384
199, -3535.28, -4653.10, -2971.99, -3135.78, 0.000, 0.000, 0.000, 15:26:25.385
200, -3534.90, -4660.12, -2986.09, -3146.00, 0.000, 0.000, 0.000, 15:26:25.385
0, -4506.84, -4646.32, -4007.27, -4103.29, 0.000, 0.000, 0.000, 15:26:25.385
1, -4508.24, -4643.38, -3950.94, -4103.09, 0.000, 0.000, 0.000, 15:26:25.386
2, -4518.90, -4656.05, -4036.70, -4135.59, 0.000, 0.000, 0.000, 15:26:25.386
3, -4514.78, -4649.01, -3962.88, -4105.72, 0.000, 0.000, 0.000, 15:26:25.412
4, -4504.50, -4649.87, -3961.57, -4113.45, 0.000, 0.000, 0.000, 15:26:25.413
5, -4520.88, -4658.42, -3997.45, -4107.30, 0.000, 0.000, 0.000, 15:26:25.413
6, -4520.97, -4670.84, -3983.46, -4149.29, 0.000, 0.000, 0.000, 15:26:25.414
7, -4514.56, -4653.26, -3963.11, -4098.65, 0.000, 0.000, 0.000, 15:26:25.414
8, -4512.32, -4644.79, -3976.49, -4102.13, 0.000, 0.000, 0.000, 15:26:25.414
9, -4513.56, -4644.12, -4004.01, -4093.17, 0.000, 0.000, 0.000, 15:26:25.414
10, -4512.37, -4653.45, -3992.42, -4157.38, 0.000, 0.000, 0.000, 15:26:25.415
11, -4509.43, -4656.43, -3949.37, -4121.70, 0.000, 0.000, 0.000, 15:26:25.415
12, -4503.17, -4648.59, -3959.39, -4071.72, 0.000, 0.000, 0.000, 15:26:25.415
13, -4507.91, -4649.29, -3958.11, -4066.05, 0.000, 0.000, 0.000, 15:26:25.415
14, -4514.73, -4661.21, -3973.07, -4109.44, 0.000, 0.000, 0.000, 15:26:25.416
15, -4509.18, -4652.51, -3962.81, -4113.65, 0.000, 0.000, 0.000, 15:26:25.416
16, -4505.76, -4642.97, -3946.20, -4086.81, 0.000, 0.000, 0.000, 15:26:25.416
17, -4518.19, -4645.82, -3984.11, -4096.41, 0.000, 0.000, 0.000, 15:26:25.416
18, -4523.60, -4656.28, -3966.09, -4140.19, 0.000, 0.000, 0.000, 15:26:25.416
19, -4511.51, -4649.34, -3962.81, -4126.55, 0.000, 0.000, 0.000, 15:26:25.432
20, -4507.43, -4648.24, -3974.57, -4082.57, 0.000, 0.000, 0.000, 15:26:25.433
21, -4506.02, -4641.67, -3982.40, -4099.55, 0.000, 0.000, 0.000, 15:26:25.443
22, -4512.88, -4641.41, -3997.84, -4085.75, 0.000, 0.000, 0.000, 15:26:25.444
23, -4506.07, -4639.95, -3952.06, -4083.37, 0.000, 0.000, 0.000, 15:26:25.444
24, -4500.96, -4634.88, -3978.98, -4091.95, 0.000, 0.000, 0.000, 15:26:25.444
25, -4509.76, -4649.78, -3986.30, -4091.98, 0.000, 0.000, 0.000, 15:26:25.459
26, -4510.92, -4650.34, -3978.80, -4105.08, 0.000, 0.000, 0.000, 15:26:25.459
27, -4501.45, -4640.02, -3981.99, -4072.28, 0.000, 0.000, 0.000, 15:26:25.475
28, -4506.81, -4644.73, -4020.13, -4107.24, 0.000, 0.000, 0.000, 15:26:25.476
29, -4517.67, -4644.37, -3956.32, -4096.79, 0.000, 0.000, 0.000, 15:26:25.476
30, -4516.68, -4658.91, -4001.67, -4106.96, 0.000, 0.000, 0.000, 15:26:25.476
31, -4515.08, -4655.68, -3987.27, -4118.20, 0.000, 0.000, 0.000, 15:26:25.488
32, -4493.32, -4645.76, -3948.22, -4104.91, 0.000, 0.000, 0.000, 15:26:25.489
33, -4497.06, -4645.25, -3914.88, -4087.01, 0.000, 0.000, 0.000, 15:26:25.605
34, -4493.95, -4635.92, -3922.54, -4098.66, 0.000, 0.000, 0.000, 15:26:25.605
35, -4491.56, -4632.02, -3993.68, -4112.62, 0.000, 0.000, 0.000, 15:26:25.606
36, -4495.32, -4638.94, -4053.31, -4100.73, 0.000, 0.000, 0.000, 15:26:25.606
37, -4514.99, -4646.37, -4005.54, -4102.55, 0.000, 0.000, 0.000, 15:26:25.606
38, -4525.09, -4664.21, -4000.69, -4176.19, 0.000, 0.000, 0.000, 15:26:25.606
39, -4539.38, -4669.46, -3996.63, -4086.48, 0.000, 0.000, 0.000, 15:26:25.607
40, -4537.13, -4671.58, -4021.79, -4084.32, 0.000, 0.000, 0.000, 15:26:25.607
41, -4525.34, -4669.45, -4046.01, -4121.96, 0.000, 0.000, 0.000, 15:26:25.607
42, -4517.15, -4658.58, -4009.78, -4098.71, 0.000, 0.000, 0.000, 15:26:25.607
43, -4496.63, -4631.65, -3976.87, -4075.11, 0.000, 0.000, 0.000, 15:26:25.608
44, -4481.77, -4626.16, -3955.93, -4111.99, 0.000, 0.000, 0.000, 15:26:25.608
45, -4503.57, -4644.86, -3981.98, -4070.22, 0.000, 0.000, 0.000, 15:26:25.608
46, -4509.77, -4655.41, -3997.88, -4124.37, 0.000, 0.000, 0.000, 15:26:25.609
47, -4504.02, -4648.69, -3960.51, -4099.61, 0.000, 0.000, 0.000, 15:26:25.611
48, -4511.90, -4640.13, -3946.04, -4067.13, 0.000, 0.000, 0.000, 15:26:25.611
49, -4512.73, -4650.55, -3977.15, -4119.80, 0.000, 0.000, 0.000, 15:26:25.612
50, -4503.09, -4650.81, -3979.91, -4121.15, 0.000, 0.000, 0.000, 15:26:25.613
51, -4500.22, -4636.05, -3943.35, -4108.50, 0.000, 0.000, 0.000, 15:26:25.614
52, -4502.21, -4636.40, -3945.89, -4102.79, 0.000, 0.000, 0.000, 15:26:25.614
53, -4507.11, -4653.83, -3968.46, -4112.95, 0.000, 0.000, 0.000, 15:26:25.614
54, -4523.27, -4656.96, -4008.90, -4154.68, 0.000, 0.000, 0.000, 15:26:25.614
55, -4521.82, -4647.85, -3978.14, -4058.02, 0.000, 0.000, 0.000, 15:26:25.675
56, -4499.80, -4634.04, -3913.42, -4105.12, 0.000, 0.000, 0.000, 15:26:25.676
57, -4502.14, -4646.68, -3997.87, -4097.62, 0.000, 0.000, 0.000, 15:26:25.676
58, -4521.34, -4663.83, -4076.92, -4117.25, 0.000, 0.000, 0.000, 15:26:25.676
59, -4528.78, -4667.17, -4018.25, -4135.85, 0.000, 0.000, 0.000, 15:26:25.676
60, -4514.00, -4658.19, -3997.92, -4096.63, 0.000, 0.000, 0.000, 15:26:25.677
61, -4513.75, -4649.24, -3994.69, -4090.33, 0.000, 0.000, 0.000, 15:26:25.680
62, -4504.95, -4644.52, -3978.43, -4136.68, 0.000, 0.000, 0.000, 15:26:25.680
63, -4517.56, -4649.13, -4002.59, -4136.52, 0.000, 0.000, 0.000, 15:26:25.680
64, -4508.90, -4635.62, -3960.25, -4096.12, 0.000, 0.000, 0.000, 15:26:25.681
65, -4505.53, -4641.29, -4003.05, -4106.49, 0.000, 0.000, 0.000, 15:26:25.681
66, -4499.51, -4642.57, -3979.89, -4100.37, 0.000, 0.000, 0.000, 15:26:25.681
67, -4506.18, -4632.73, -3967.33, -4103.84, 0.000, 0.000, 0.000, 15:26:25.703
68, -4497.39, -4621.96, -3993.51, -4094.38, 0.000, 0.000, 0.000, 15:26:25.704
69, -4487.59, -4624.63, -3948.45, -4103.42, 0.000, 0.000, 0.000, 15:26:25.704
70, -4497.45, -4625.19, -3931.81, -4094.09, 0.000, 0.000, 0.000, 15:26:25.704
71, -4497.66, -4630.71, -3996.54, -4121.65, 0.000, 0.000, 0.000, 15:26:25.704
72, -4507.35, -4642.08, -4021.83, -4100.98, 0.000, 0.000, 0.000, 15:26:25.705
73, -4509.75, -4657.03, -4024.10, -4156.34, 0.000, 0.000, 0.000, 15:26:25.705
74, -4535.51, -4669.98, -3968.47, -4127.28, 0.000, 0.000, 0.000, 15:26:25.705
75, -4522.20, -4661.52, -3961.39, -4111.05, 0.000, 0.000, 0.000, 15:26:25.714
76, -4514.87, -4648.19, -3999.20, -4101.60, 0.000, 0.000, 0.000, 15:26:25.714
77, -4514.19, -4660.45, -3952.18, -4122.07, 0.000, 0.000, 0.000, 15:26:25.715
78, -4504.45, -4664.34, -3945.41, -4145.24, 0.000, 0.000, 0.000, 15:26:25.715
79, -4503.21, -4650.62, -3977.51, -4114.93, 0.000, 0.000, 0.000, 15:26:25.733
80, -4492.74, -4634.88, -3949.48, -4080.91, 0.000, 0.000, 0.000, 15:26:25.733
81, -4492.47, -4629.67, -3993.00, -4094.46, 0.000, 0.000, 0.000, 15:26:26.182
82, -4501.82, -4633.94, -4005.20, -4072.93, 0.000, 0.000, 0.000, 15:26:26.182
83, -4491.18, -4617.96, -3992.61, -4125.66, 0.000, 0.000, 0.000, 15:26:26.182
84, -4488.68, -4610.50, -3893.36, -4068.77, 0.000, 0.000, 0.000, 15:26:26.182
85, -4475.57, -4612.66, -3941.78, -4097.00, 0.000, 0.000, 0.000, 15:26:26.183
86, -4502.95, -4635.19, -4025.54, -4118.77, 0.000, 0.000, 0.000, 15:26:26.183
87, -4516.32, -4650.01, -4008.07, -4103.12, 0.000, 0.000, 0.000, 15:26:26.210
88, -4522.38, -4656.05, -4004.59, -4083.35, 0.000, 0.000, 0.000, 15:26:26.210
89, -4527.16, -4650.77, -3998.67, -4098.33, 0.000, 0.000, 0.000, 15:26:26.211
90, -4534.47, -4663.69, -3984.38, -4103.51, 0.000, 0.000, 0.000, 15:26:26.211
91, -4518.56, -4657.36, -3987.91, -4101.27, 0.000, 0.000, 0.000, 15:26:26.211
92, -4504.43, -4633.89, -3985.11, -4063.98, 0.000, 0.000, 0.000, 15:26:26.211
93, -4506.54, -4638.27, -3971.47, -4103.92, 0.000, 0.000, 0.000, 15:26:26.215
94, -4510.71, -4647.72, -4001.66, -4139.83, 0.000, 0.000, 0.000, 15:26:26.216
95, -4505.19, -4642.56, -3988.56, -4133.90, 0.000, 0.000, 0.000, 15:26:26.216
96, -4508.11, -4640.19, -3920.44, -4107.02, 0.000, 0.000, 0.000, 15:26:26.216
97, -4506.21, -4639.47, -3993.14, -4138.70, 0.000, 0.000, 0.000, 15:26:26.216
98, -4501.96, -4633.15, -3968.94, -4035.84, 0.000, 0.000, 0.000, 15:26:26.217
99, -4497.78, -4628.78, -3949.34, -4098.43, 0.000, 0.000, 0.000, 15:26:26.217
100, -4503.62, -4633.03, -3951.89, -4102.36, 0.000, 0.000, 0.000, 15:26:26.217
101, -4506.20, -4642.10, -3952.66, -4106.94, 0.000, 0.000, 0.000, 15:26:26.262
102, -4510.46, -4648.68, -3981.77, -4094.52, 0.000, 0.000, 0.000, 15:26:26.263
103, -4517.17, -4645.22, -4020.31, -4110.66, 0.000, 0.000, 0.000, 15:26:26.263
104, -4517.09, -4644.42, -3954.42, -4089.68, 0.000, 0.000, 0.000, 15:26:26.263
105, -4519.77, -4653.45, -3965.77, -4130.90, 0.000, 0.000, 0.000, 15:26:26.267
106, -4524.03, -4653.68, -4000.73, -4138.28, 0.000, 0.000, 0.000, 15:26:26.267
107, -4506.27, -4650.36, -4021.91, -4147.54, 0.000, 0.000, 0.000, 15:26:26.268
108, -4500.48, -4648.48, -3972.23, -4103.11, 0.000, 0.000, 0.000, 15:26:26.268
109, -4496.48, -4656.08, -3988.92, -4119.23, 0.000, 0.000, 0.000, 15:26:26.268
110, -4511.16, -4655.35, -4013.75, -4121.59, 0.000, 0.000, 0.000, 15:26:26.268
111, -4499.86, -4646.37, -3991.05, -4123.64, 0.000, 0.000, 0.000, 15:26:26.269
112, -4487.78, -4630.30, -3968.78, -4085.43, 0.000, 0.000, 0.000, 15:26:26.269
113, -4503.69, -4632.95, -3929.58, -4104.88, 0.000, 0.000, 0.000, 15:26:26.269
114, -4504.32, -4639.73, -4000.57, -4103.13, 0.000, 0.000, 0.000, 15:26:26.269
115, -4513.26, -4638.80, -3934.00, -4086.67, 0.000, 0.000, 0.000, 15:26:26.270
116, -4487.48, -4628.34, -3955.19, -4083.22, 0.000, 0.000, 0.000, 15:26:26.270
117, -4494.28, -4631.48, -3995.58, -4107.72, 0.000, 0.000, 0.000, 15:26:26.270
118, -4505.32, -4632.98, -4045.33, -4111.59, 0.000, 0.000, 0.000, 15:26:26.270
119, -4496.74, -4625.73, -3956.71, -4097.60, 0.000, 0.000, 0.000, 15:26:26.270
120, -4493.92, -4629.84, -4008.73, -4100.89, 0.000, 0.000, 0.000, 15:26:26.279
121, -4504.23, -4640.07, -3980.63, -4098.71, 0.000, 0.000, 0.000, 15:26:26.279
122, -4514.53, -4647.22, -4021.11, -4128.07, 0.000, 0.000, 0.000, 15:26:26.280
123, -4509.08, -4640.19, -3971.65, -4115.07, 0.000, 0.000, 0.000, 15:26:26.280
124, -4511.87, -4641.65, -3971.40, -4132.96, 0.000, 0.000, 0.000, 15:26:26.280
125, -4504.75, -4639.50, -3973.28, -4099.32, 0.000, 0.000, 0.000, 15:26:26.283
126, -4512.39, -4645.82, -3939.39, -4129.22, 0.000, 0.000, 0.000, 15:26:26.283
127, -4507.45, -4638.44, -4026.38, -4124.36, 0.000, 0.000, 0.000, 15:26:26.283
128, -4492.08, -4619.17, -3934.43, -4099.84, 0.000, 0.000, 0.000, 15:26:26.283
129, -4482.71, -4617.02, -3969.28, -4102.83, 0.000, 0.000, 0.000, 15:26:26.287
130, -4496.40, -4620.99, -3985.66, -4087.68, 0.000, 0.000, 0.000, 15:26:26.288
131, -4497.00, -4620.25, -3984.66, -4072.81, 0.000, 0.000, 0.000, 15:26:26.288
132, -4503.23, -4632.57, -3982.03, -4085.34, 0.000, 0.000, 0.000, 15:26:26.288
133, -4491.34, -4635.35, -3962.85, -4077.80, 0.000, 0.000, 0.000, 15:26:26.289
134, -4501.12, -4651.23, -3943.01, -4094.29, 0.000, 0.000, 0.000, 15:26:26.290
135, -4497.42, -4648.68, -3974.04, -4106.30, 0.000, 0.000, 0.000, 15:26:26.395
136, -4502.48, -4643.22, -3982.77, -4123.47, 0.000, 0.000, 0.000, 15:26:26.396
137, -4509.35, -4640.09, -3982.56, -4097.25, 0.000, 0.000, 0.000, 15:26:26.420
138, -4507.97, -4651.22, -3984.09, -4100.61, 0.000, 0.000, 0.000, 15:26:26.421
139, -4496.73, -4630.59, -3989.76, -4112.61, 0.000, 0.000, 0.000, 15:26:26.421
140, -4493.30, -4625.96, -3989.57, -4104.37, 0.000, 0.000, 0.000, 15:26:26.422
141, -4501.37, -4635.92, -3975.58, -4099.00, 0.000, 0.000, 0.000, 15:26:26.422
142, -4516.52, -4644.31, -4015.75, -4147.29, 0.000, 0.000, 0.000, 15:26:26.445
143, -4500.28, -4639.60, -4006.63, -4093.53, 0.000, 0.000, 0.000, 15:26:26.446
144, -4498.71, -4634.91, -3997.26, -4103.50, 0.000, 0.000, 0.000, 15:26:26.446
145, -4499.02, -4638.94, -4008.59, -4101.88, 0.000, 0.000, 0.000, 15:26:26.447
146, -4508.39, -4649.29, -4021.53, -4108.73, 0.000, 0.000, 0.000, 15:26:26.447
147, -4514.87, -4643.01, -3896.77, -4103.73, 0.000, 0.000, 0.000, 15:26:26.447
148, -4500.41, -4631.95, -3904.13, -4117.15, 0.000, 0.000, 0.000, 15:26:26.447
149, -4495.60, -4644.43, -3978.05, -4124.48, 0.000, 0.000, 0.000, 15:26:26.448
150, -4493.10, -4635.38, -3919.37, -4129.45, 0.000, 0.000, 0.000, 15:26:26.448
151, -4487.76, -4629.31, -3940.76, -4084.11, 0.000, 0.000, 0.000, 15:26:26.448
152, -4485.46, -4621.65, -3920.00, -4111.59, 0.000, 0.000, 0.000, 15:26:26.448
153, -4502.21, -4625.81, -4019.18, -4072.99, 0.000, 0.000, 0.000, 15:26:26.451
154, -4503.44, -4631.74, -3986.21, -4109.39, 0.000, 0.000, 0.000, 15:26:26.451
155, -4499.76, -4622.19, -3981.78, -4062.89, 0.000, 0.000, 0.000, 15:26:26.451
156, -4493.92, -4626.82, -4002.72, -4070.74, 0.000, 0.000, 0.000, 15:26:26.451
157, -4493.95, -4631.94, -3979.91, -4084.33, 0.000, 0.000, 0.000, 15:26:26.452
158, -4501.69, -4642.63, -3965.77, -4105.74, 0.000, 0.000, 0.000, 15:26:26.452
159, -4501.49, -4636.25, -3965.28, -4090.90, 0.000, 0.000, 0.000, 15:26:26.452
160, -4516.13, -4648.14, -4010.55, -4098.68, 0.000, 0.000, 0.000, 15:26:26.452
161, -4527.22, -4659.05, -4041.90, -4142.57, 0.000, 0.000, 0.000, 15:26:26.453
162, -4515.28, -4654.09, -3998.18, -4223.60, 0.000, 0.000, 0.000, 15:26:26.453
163, -4510.12, -4640.72, -3948.26, -4079.40, 0.000, 0.000, 0.000, 15:26:26.454
164, -4503.78, -4635.14, -3920.21, -4091.28, 0.000, 0.000, 0.000, 15:26:26.454
165, -4506.61, -4633.68, -3990.97, -4133.43, 0.000, 0.000, 0.000, 15:26:26.454
166, -4517.34, -4641.24, -3962.84, -4168.22, 0.000, 0.000, 0.000, 15:26:26.454
167, -4504.10, -4638.61, -3994.41, -4131.22, 0.000, 0.000, 0.000, 15:26:26.454
168, -4491.33, -4628.73, -4002.87, -4051.90, 0.000, 0.000, 0.000, 15:26:26.455
169, -4504.27, -4635.90, -4006.46, -4136.83, 0.000, 0.000, 0.000, 15:26:26.455
170, -4506.76, -4638.24, -3970.72, -4119.49, 0.000, 0.000, 0.000, 15:26:26.455
171, -4490.26, -4629.66, -4022.62, -4052.19, 0.000, 0.000, 0.000, 15:26:26.455
172, -4474.67, -4599.90, -3955.84, -4055.15, 0.000, 0.000, 0.000, 15:26:26.456
173, -4503.74, -4623.85, -3994.67, -4037.58, 0.000, 0.000, 0.000, 15:26:26.456
174, -4514.72, -4637.91, -3977.48, -4113.56, 0.000, 0.000, 0.000, 15:26:26.456
175, -4511.13, -4636.71, -3972.91, -4122.84, 0.000, 0.000, 0.000, 15:26:26.456
176, -4485.72, -4621.94, -3936.82, -4096.18, 0.000, 0.000, 0.000, 15:26:26.457
177, -4506.72, -4628.87, -3975.91, -4071.00, 0.000, 0.000, 0.000, 15:26:26.457
178, -4502.05, -4636.30, -3941.56, -4120.47, 0.000, 0.000, 0.000, 15:26:26.458
179, -4506.75, -4646.67, -4020.94, -4141.66, 0.000, 0.000, 0.000, 15:26:26.458
180, -4495.70, -4643.95, -3993.08, -4100.39, 0.000, 0.000, 0.000, 15:26:26.458
181, -4514.08, -4643.57, -4008.91, -4103.04, 0.000, 0.000, 0.000, 15:26:26.458
182, -4505.59, -4646.98, -3969.24, -4137.79, 0.000, 0.000, 0.000, 15:26:26.459
183, -4502.89, -4640.88, -3963.22, -4113.38, 0.000, 0.000, 0.000, 15:26:26.462
184, -4508.00, -4644.16, -3968.22, -4124.86, 0.000, 0.000, 0.000, 15:26:26.462
185, -4510.67, -4644.03, -3991.18, -4114.73, 0.000, 0.000, 0.000, 15:26:26.463
186, -4509.50, -4636.14, -3979.56, -4102.48, 0.000, 0.000, 0.000, 15:26:26.463
187, -4509.49, -4632.66, -3980.95, -4091.66, 0.000, 0.000, 0.000, 15:26:26.463
188, -4498.84, -4622.81, -3953.88, -4086.89, 0.000, 0.000, 0.000, 15:26:26.463
189, -4493.84, -4618.19, -3956.22, -4078.57, 0.000, 0.000, 0.000, 15:26:26.464
190, -4504.20, -4638.30, -4019.03, -4072.41, 0.000, 0.000, 0.000, 15:26:26.464
191, -4496.29, -4627.00, -3965.93, -4115.00, 0.000, 0.000, 0.000, 15:26:26.469
192, -4493.44, -4629.72, -3966.95, -4124.83, 0.000, 0.000, 0.000, 15:26:26.470
193, -4497.42, -4641.98, -3964.60, -4113.62, 0.000, 0.000, 0.000, 15:26:26.470
194, -4515.35, -4655.20, -4014.08, -4138.66, 0.000, 0.000, 0.000, 15:26:26.470
195, -4497.54, -4652.07, -3983.44, -4110.60, 0.000, 0.000, 0.000, 15:26:26.470
196, -4498.61, -4640.56, -4006.34, -4105.38, 0.000, 0.000, 0.000, 15:26:26.471
197, -4494.91, -4631.15, -3932.13, -4121.10, 0.000, 0.000, 0.000, 15:26:26.471
198, -4499.91, -4628.29, -4022.82, -4107.23, 0.000, 0.000, 0.000, 15:26:26.471
199, -4489.63, -4623.02, -3975.74, -4110.25, 0.000, 0.000, 0.000, 15:26:26.471
200, -4510.00, -4625.44, -3974.55, -4100.37, 0.000, 0.000, 0.000, 15:26:26.471
0, -4516.06, -4634.50, -3999.50, -4103.22, 0.000, 0.000, 0.000, 15:26:26.472
1, -4522.90, -4645.75, -4022.18, -4095.17, 0.000, 0.000, 0.000, 15:26:26.472
2, -4515.10, -4639.90, -3993.43, -4121.18, 0.000, 0.000, 0.000, 15:26:26.472
3, -4502.13, -4627.51, -3962.33, -4104.08, 0.000, 0.000, 0.000, 15:26:26.472
4, -4489.61, -4618.97, -3947.34, -4101.94, 0.000, 0.000, 0.000, 15:26:26.472
5, -4508.04, -4631.35, -4001.90, -4117.94, 0.000, 0.000, 0.000, 15:26:26.473
6, -4490.88, -4630.15, -3940.75, -4088.75, 0.000, 0.000, 0.000, 15:26:26.473
7, -4499.59, -4630.71, -3939.79, -4103.88, 0.000, 0.000, 0.000, 15:26:26.473
8, -4506.72, -4633.44, -4010.34, -4125.02, 0.000, 0.000, 0.000, 15:26:26.473
9, -4515.61, -4639.28, -3990.54, -4070.53, 0.000, 0.000, 0.000, 15:26:26.473
10, -4496.88, -4620.15, -3945.51, -4085.86, 0.000, 0.000, 0.000, 15:26:26.474
11, -4483.18, -4618.42, -3967.11, -4086.18, 0.000, 0.000, 0.000, 15:26:26.474
12, -4474.84, -4607.35, -3968.56, -4035.64, 0.000, 0.000, 0.000, 15:26:26.474
13, -4490.51, -4620.22, -3949.72, -4087.11, 0.000, 0.000, 0.000, 15:26:26.474
14, -4506.00, -4629.40, -3972.86, -4094.10, 0.000, 0.000, 0.000, 15:26:26.475
15, -4507.42, -4625.96, -3952.26, -4113.74, 0.000, 0.000, 0.000, 15:26:26.475
16, -4499.55, -4636.53, -3945.52, -4117.81, 0.000, 0.000, 0.000, 15:26:26.475
17, -4500.49, -4624.26, -3981.03, -4106.36, 0.000, 0.000, 0.000, 15:26:26.475
18, -4486.67, -4612.07, -4006.82, -4104.93, 0.000, 0.000, 0.000, 15:26:26.475
19, -4481.84, -4611.97, -3956.49, -4107.51, 0.000, 0.000, 0.000, 15:26:26.476
20, -4484.29, -4623.29, -3985.30, -4090.31, 0.000, 0.000, 0.000, 15:26:26.476
21, -4497.78, -4634.69, -3990.26, -4097.77, 0.000, 0.000, 0.000, 15:26:26.476
22, -4502.53, -4646.02, -3990.11, -4146.31, 0.000, 0.000, 0.000, 15:26:26.476
23, -4497.90, -4635.95, -3982.62, -4113.11, 0.000, 0.000, 0.000, 15:26:26.476
24, -4489.60, -4617.79, -3897.55, -4115.23, 0.000, 0.000, 0.000, 15:26:26.476
25, -4489.61, -4619.30, -3980.79, -4098.23, 0.000, 0.000, 0.000, 15:26:26.477
26, -4496.46, -4612.40, -3907.95, -4089.42, 0.000, 0.000, 0.000, 15:26:26.477
27, -4487.83, -4604.61, -3933.23, -4070.17, 0.000, 0.000, 0.000, 15:26:26.622
28, -4502.53, -4626.29, -3992.44, -4092.81, 0.000, 0.000, 0.000, 15:26:26.622
29, -4520.22, -4648.00, -3955.21, -4100.50, 0.000, 0.000, 0.000, 15:26:26.824
30, -4520.83, -4645.72, -3981.94, -4083.37, 0.000, 0.000, 0.000, 15:26:26.825
31, -4526.84, -4632.99, -4019.44, -4108.32, 0.000, 0.000, 0.000, 15:26:26.830
32, -4508.70, -4632.48, -3975.31, -4100.59, 0.000, 0.000, 0.000, 15:26:26.831
33, -4500.40, -4627.21, -3936.19, -4113.37, 0.000, 0.000, 0.000, 15:26:26.831
34, -4463.05, -4601.08, -3992.80, -4087.93, 0.000, 0.000, 0.000, 15:26:26.831
35, -4468.40, -4605.51, -3942.66, -4070.42, 0.000, 0.000, 0.000, 15:26:26.831
36, -4476.23, -4621.85, -3962.47, -4087.31, 0.000, 0.000, 0.000, 15:26:26.832
37, -4506.49, -4638.27, -3965.50, -4098.42, 0.000, 0.000, 0.000, 15:26:26.836
38, -4499.43, -4637.72, -3990.85, -4060.14, 0.000, 0.000, 0.000, 15:26:26.837
39, -4503.73, -4638.79, -3964.68, -4116.05, 0.000, 0.000, 0.000, 15:26:26.837
40, -4494.19, -4632.67, -3923.18, -4073.68, 0.000, 0.000, 0.000, 15:26:26.837
41, -4491.23, -4634.98, -3981.14, -4115.71, 0.000, 0.000, 0.000, 15:26:26.838
42, -4490.97, -4628.27, -3941.13, -4090.07, 0.000, 0.000, 0.000, 15:26:26.838
43, -4496.16, -4625.55, -3986.28, -4119.76, 0.000, 0.000, 0.000, 15:26:26.838
44, -4494.54, -4630.11, -3973.07, -4099.61, 0.000, 0.000, 0.000, 15:26:26.838
45, -4504.11, -4639.95, -4006.61, -4123.47, 0.000, 0.000, 0.000, 15:26:26.838
46, -4514.24, -4638.79, -4005.02, -4107.14, 0.000, 0.000, 0.000, 15:26:26.839
47, -4497.32, -4635.36, -3994.76, -4119.96, 0.000, 0.000, 0.000, 15:26:26.839
48, -4505.45, -4635.59, -4014.38, -4108.01, 0.000, 0.000, 0.000, 15:26:26.839
49, -4509.97, -4647.74, -3988.51, -4088.85, 0.000, 0.000, 0.000, 15:26:26.839
50, -4502.27, -4645.43, -3934.34, -4117.06, 0.000, 0.000, 0.000, 15:26:26.840
51, -4507.63, -4650.78, -3998.55, -4089.40, 0.000, 0.000, 0.000, 15:26:26.840
52, -4501.73, -4636.45, -4008.12, -4110.81, 0.000, 0.000, 0.000, 15:26:26.840
53, -4506.15, -4631.57, -4021.31, -4114.51, 0.000, 0.000, 0.000, 15:26:26.840
54, -4503.71, -4627.11, -4026.48, -4111.09, 0.000, 0.000, 0.000, 15:26:26.840
55, -4504.76, -4620.52, -3963.07, -4085.41, 0.000, 0.000, 0.000, 15:26:26.840
56, -4505.73, -4632.81, -4025.77, -4090.23, 0.000, 0.000, 0.000, 15:26:26.841
57, -4514.32, -4645.70, -3968.36, -4124.62, 0.000, 0.000, 0.000, 15:26:26.841
58, -4506.25, -4635.98, -3960.00, -4116.95, 0.000, 0.000, 0.000, 15:26:26.841
59, -4484.64, -4615.05, -3985.42, -4134.36, 0.000, 0.000, 0.000, 15:26:26.841
60, -4473.78, -4609.70, -3939.15, -4098.91, 0.000, 0.000, 0.000, 15:26:26.842
61, -4474.76, -4611.46, -3960.05, -4110.94, 0.000, 0.000, 0.000, 15:26:26.842
62, -4491.70, -4623.51, -3987.52, -4104.87, 0.000, 0.000, 0.000, 15:26:26.842
63, -4487.67, -4615.07, -3991.20, -4102.78, 0.000, 0.000, 0.000, 15:26:26.842
64, -4506.57, -4626.45, -3935.99, -4098.85, 0.000, 0.000, 0.000, 15:26:26.842
65, -4496.18, -4631.41, -3973.80, -4110.47, 0.000, 0.000, 0.000, 15:26:26.842
66, -4484.32, -4616.07, -3922.17, -4083.12, 0.000, 0.000, 0.000, 15:26:26.843
67, -4500.01, -4625.63, -3977.21, -4095.79, 0.000, 0.000, 0.000, 15:26:26.843
68, -4495.99, -4626.06, -3895.75, -4087.19, 0.000, 0.000, 0.000, 15:26:26.843
69, -4486.48, -4629.04, -3930.34, -4121.68, 0.000, 0.000, 0.000, 15:26:26.843
70, -4504.55, -4626.48, -3971.25, -4089.92, 0.000, 0.000, 0.000, 15:26:26.844
71, -4491.03, -4609.51, -3985.41, -4081.55, 0.000, 0.000, 0.000, 15:26:26.844
72, -4493.34, -4608.19, -4037.09, -4095.53, 0.000, 0.000, 0.000, 15:26:26.844
73, -4496.36, -4603.66, -3925.61, -4120.77, 0.000, 0.000, 0.000, 15:26:26.852
74, -4488.58, -4593.53, -3967.74, -4093.88, 0.000, 0.000, 0.000, 15:26:26.852
75, -4486.64, -4597.77, -3958.18, -4077.12, 0.000, 0.000, 0.000, 15:26:26.852
76, -4493.95, -4604.44, -4018.28, -4109.10, 0.000, 0.000, 0.000, 15:26:26.853
77, -4509.10, -4625.44, -3959.28, -4111.26, 0.000, 0.000, 0.000, 15:26:26.888
78, -4517.56, -4640.51, -4005.05, -4113.05, 0.000, 0.000, 0.000, 15:26:26.888
79, -4502.23, -4627.59, -3947.95, -4070.50, 0.000, 0.000, 0.000, 15:26:26.888
80, -4500.70, -4624.82, -4005.71, -4124.98, 0.000, 0.000, 0.000, 15:26:26.888
81, -4491.77, -4626.61, -3980.53, -4099.80, 0.000, 0.000, 0.000, 15:26:26.889
82, -4495.53, -4634.78, -3976.34, -4106.08, 0.000, 0.000, 0.000, 15:26:26.889
83, -4478.28, -4624.96, -3955.84, -4094.44, 0.000, 0.000, 0.000, 15:26:26.889
84, -4507.97, -4653.68, -4001.61, -4143.15, 0.000, 0.000, 0.000, 15:26:26.889
85, -4514.09, -4651.96, -3961.00, -4098.42, 0.000, 0.000, 0.000, 15:26:26.890
86, -4508.39, -4647.47, -3987.43, -4107.39, 0.000, 0.000, 0.000, 15:26:26.890
87, -4499.51, -4640.78, -4015.91, -4131.76, 0.000, 0.000, 0.000, 15:26:26.890
88, -4495.64, -4639.52, -3969.38, -4116.38, 0.000, 0.000, 0.000, 15:26:26.890
89, -4501.73, -4646.38, -3952.51, -4098.71, 0.000, 0.000, 0.000, 15:26:26.890
90, -4502.36, -4641.18, -3988.19, -4135.00, 0.000, 0.000, 0.000, 15:26:26.890
91, -4500.49, -4634.17, -4000.82, -4116.96, 0.000, 0.000, 0.000, 15:26:26.891
92, -4504.83, -4634.43, -3971.31, -4078.24, 0.000, 0.000, 0.000, 15:26:26.891
93, -4520.26, -4657.43, -3983.62, -4092.06, 0.000, 0.000, 0.000, 15:26:26.891
94, -4512.94, -4652.29, -3982.50, -4111.32, 0.000, 0.000, 0.000, 15:26:26.891
95, -4519.80, -4655.46, -3956.11, -4086.89, 0.000, 0.000, 0.000, 15:26:26.891
96, -4513.95, -4653.27, -3994.47, -4088.50, 0.000, 0.000, 0.000, 15:26:26.892
97, -4520.27, -4660.76, -3976.62, -4140.98, 0.000, 0.000, 0.000, 15:26:26.892
98, -4527.43, -4654.09, -3992.01, -4100.21, 0.000, 0.000, 0.000, 15:26:26.892
99, -4522.38, -4651.07, -3938.55, -4110.44, 0.000, 0.000, 0.000, 15:26:26.892
100, -4529.68, -4653.77, -4005.41, -4135.78, 0.000, 0.000, 0.000, 15:26:26.892
101, -4524.10, -4647.39, -3992.77, -4115.27, 0.000, 0.000, 0.000, 15:26:26.893
102, -4506.59, -4640.37, -4006.36, -4117.95, 0.000, 0.000, 0.000, 15:26:26.893
103, -4509.30, -4636.80, -3983.79, -4092.92, 0.000, 0.000, 0.000, 15:26:26.893
104, -4503.39, -4638.55, -4010.73, -4106.55, 0.000, 0.000, 0.000, 15:26:26.893
105, -4498.20, -4635.00, -3970.88, -4091.49, 0.000, 0.000, 0.000, 15:26:26.894
106, -4492.06, -4626.83, -3977.16, -4089.45, 0.000, 0.000, 0.000, 15:26:26.894
107, -4488.22, -4624.56, -3977.15, -4078.86, 0.000, 0.000, 0.000, 15:26:26.894
108, -4492.64, -4621.24, -3975.21, -4118.99, 0.000, 0.000, 0.000, 15:26:26.894
109, -4493.71, -4627.75, -4006.06, -4118.44, 0.000, 0.000, 0.000, 15:26:26.894
110, -4498.52, -4635.20, -3955.78, -4090.00, 0.000, 0.000, 0.000, 15:26:26.895
111, -4501.76, -4632.08, -3989.17, -4099.40, 0.000, 0.000, 0.000, 15:26:26.900
112, -4516.65, -4632.83, -3963.61, -4069.56, 0.000, 0.000, 0.000, 15:26:26.901
113, -4498.26, -4625.48, -3985.73, -4111.05, 0.000, 0.000, 0.000, 15:26:26.902
114, -4501.97, -4633.09, -3994.64, -4115.90, 0.000, 0.000, 0.000, 15:26:26.904
115, -4500.93, -4623.06, -3986.81, -4088.50, 0.000, 0.000, 0.000, 15:26:26.917
116, -4501.66, -4635.83, -3946.36, -4138.92, 0.000, 0.000, 0.000, 15:26:26.918
117, -4503.03, -4643.66, -3942.85, -4070.75, 0.000, 0.000, 0.000, 15:26:26.928
118, -4519.99, -4651.44, -3963.93, -4124.31, 0.000, 0.000, 0.000, 15:26:26.928
119, -4509.13, -4648.54, -3980.24, -4092.84, 0.000, 0.000, 0.000, 15:26:26.936
120, -4522.82, -4652.70, -4004.81, -4114.45, 0.000, 0.000, 0.000, 15:26:26.937
121, -4516.24, -4654.06, -3969.39, -4104.85, 0.000, 0.000, 0.000, 15:26:26.943
122, -4504.46, -4639.08, -3966.95, -4147.24, 0.000, 0.000, 0.000, 15:26:26.944
123, -4495.07, -4630.93, -4011.56, -4120.83, 0.000, 0.000, 0.000, 15:26:27.288
124, -4484.96, -4623.49, -3933.53, -4120.12, 0.000, 0.000, 0.000, 15:26:27.289
125, -4494.45, -4620.92, -3958.05, -4139.58, 0.000, 0.000, 0.000, 15:26:27.290
126, -4509.70, -4644.60, -3968.77, -4132.14, 0.000, 0.000, 0.000, 15:26:27.290
127, -4506.89, -4627.38, -3933.76, -4041.15, 0.000, 0.000, 0.000, 15:26:27.290
128, -4497.21, -4616.28, -4022.61, -4114.66, 0.000, 0.000, 0.000, 15:26:27.290
129, -4505.09, -4625.39, -3982.29, -4125.83, 0.000, 0.000, 0.000, 15:26:27.292
130, -4509.86, -4626.76, -4010.55, -4132.40, 0.000, 0.000, 0.000, 15:26:27.292
131, -4495.00, -4623.15, -3951.55, -4066.53, 0.000, 0.000, 0.000, 15:26:27.300
132, -4509.94, -4638.82, -4000.19, -4154.11, 0.000, 0.000, 0.000, 15:26:27.300
133, -4516.26, -4657.20, -4030.10, -4139.69, 0.000, 0.000, 0.000, 15:26:27.354
134, -4510.87, -4647.65, -3983.88, -4119.74, 0.000, 0.000, 0.000, 15:26:27.355
135, -4522.60, -4640.51, -4014.02, -4077.65, 0.000, 0.000, 0.000, 15:26:27.359
136, -4508.42, -4634.45, -3946.43, -4114.17, 0.000, 0.000, 0.000, 15:26:27.360
137, -4488.95, -4626.06, -3971.21, -4082.63, 0.000, 0.000, 0.000, 15:26:27.376
138, -4495.89, -4617.78, -3980.99, -4089.27, 0.000, 0.000, 0.000, 15:26:27.377
139, -4486.80, -4613.01, -4013.16, -4038.03, 0.000, 0.000, 0.000, 15:26:27.377
140, -4490.26, -4612.03, -3938.93, -4097.15, 0.000, 0.000, 0.000, 15:26:27.377
141, -4514.63, -4633.31, -3959.85, -4130.04, 0.000, 0.000, 0.000, 15:26:27.377
142, -4522.72, -4649.19, -3980.60, -4097.84, 0.000, 0.000, 0.000, 15:26:27.377
143, -4507.68, -4628.75, -3908.24, -4092.27, 0.000, 0.000, 0.000, 15:26:27.379
144, -4502.36, -4625.77, -3945.80, -4110.31, 0.000, 0.000, 0.000, 15:26:27.380
145, -4486.64, -4622.68, -3942.04, -4099.53, 0.000, 0.000, 0.000, 15:26:27.380
146, -4489.96, -4622.14, -3996.75, -4084.33, 0.000, 0.000, 0.000, 15:26:27.380
147, -4495.95, -4621.39, -3980.27, -4088.51, 0.000, 0.000, 0.000, 15:26:27.380
148, -4481.71, -4612.26, -3883.46, -4089.62, 0.000, 0.000, 0.000, 15:26:27.381
149, -4497.47, -4628.35, -3969.79, -4105.22, 0.000, 0.000, 0.000, 15:26:27.381
150, -4504.05, -4633.54, -4002.19, -4086.18, 0.000, 0.000, 0.000, 15:26:27.381
151, -4505.00, -4629.50, -3983.16, -4081.01, 0.000, 0.000, 0.000, 15:26:27.381
152, -4507.75, -4636.87, -3973.06, -4102.74, 0.000, 0.000, 0.000, 15:26:27.382
153, -4501.87, -4627.06, -3988.39, -4094.09, 0.000, 0.000, 0.000, 15:26:27.382
154, -4496.57, -4631.99, -3981.96, -4118.09, 0.000, 0.000, 0.000, 15:26:27.382
155, -4510.41, -4638.54, -3974.90, -4094.32, 0.000, 0.000, 0.000, 15:26:27.382
156, -4506.35, -4633.26, -4012.89, -4087.68, 0.000, 0.000, 0.000, 15:26:27.383
157, -4511.08, -4658.93, -4041.80, -4141.47, 0.000, 0.000, 0.000, 15:26:27.383
158, -4496.78, -4635.07, -3993.41, -4113.49, 0.000, 0.000, 0.000, 15:26:27.383
159, -4493.61, -4623.79, -3985.93, -4093.05, 0.000, 0.000, 0.000, 15:26:27.383
160, -4486.35, -4622.67, -3973.18, -4093.33, 0.000, 0.000, 0.000, 15:26:27.383
161, -4487.00, -4625.94, -3927.32, -4103.73, 0.000, 0.000, 0.000, 15:26:27.393
162, -4480.66, -4623.81, -3979.32, -4115.04, 0.000, 0.000, 0.000, 15:26:27.394
163, -4494.60, -4627.01, -3979.18, -4097.38, 0.000, 0.000, 0.000, 15:26:27.394
164, -4486.69, -4611.73, -3957.37, -4092.81, 0.000, 0.000, 0.000, 15:26:27.395
165, -4494.73, -4610.90, -3988.86, -4090.44, 0.000, 0.000, 0.000, 15:26:27.395
166, -4476.11, -4598.82, -3973.29, -4072.06, 0.000, 0.000, 0.000, 15:26:27.395
167, -4482.10, -4607.09, -3937.19, -4082.34, 0.000, 0.000, 0.000, 15:26:27.404
168, -4496.72, -4614.52, -3901.39, -4115.05, 0.000, 0.000, 0.000, 15:26:27.404
169, -4506.74, -4617.09, -3972.91, -4072.63, 0.000, 0.000, 0.000, 15:26:27.405
170, -4518.66, -4637.49, -3991.88, -4118.70, 0.000, 0.000, 0.000, 15:26:27.405
171, -4499.55, -4634.58, -4000.31, -4095.42, 0.000, 0.000, 0.000, 15:26:27.406
172, -4500.65, -4622.96, -3964.28, -4139.18, 0.000, 0.000, 0.000, 15:26:27.406
173, -4487.40, -4615.23, -3969.02, -4091.51, 0.000, 0.000, 0.000, 15:26:27.407
174, -4475.10, -4608.29, -3922.05, -4123.06, 0.000, 0.000, 0.000, 15:26:27.407
175, -4481.52, -4613.82, -3958.73, -4090.90, 0.000, 0.000, 0.000, 15:26:27.407
176, -4477.69, -4625.60, -3949.41, -4087.22, 0.000, 0.000, 0.000, 15:26:27.408
177, -4498.08, -4632.67, -3957.05, -4108.80, 0.000, 0.000, 0.000, 15:26:27.408
178, -4505.17, -4626.42, -3987.22, -4107.75, 0.000, 0.000, 0.000, 15:26:27.408
179, -4504.61, -4622.94, -3953.59, -4075.63, 0.000, 0.000, 0.000, 15:26:27.419
180, -4493.16, -4630.17, -4003.88, -4107.71, 0.000, 0.000, 0.000, 15:26:27.420
181, -4494.10, -4626.45, -4014.23, -4096.39, 0.000, 0.000, 0.000, 15:26:27.421
182, -4492.62, -4620.73, -4006.96, -4104.34, 0.000, 0.000, 0.000, 15:26:27.421
183, -4517.58, -4627.89, -3993.53, -4124.92, 0.000, 0.000, 0.000, 15:26:27.421
184, -4504.17, -4626.49, -4000.91, -4072.74, 0.000, 0.000, 0.000, 15:26:27.421
185, -4518.20, -4636.69, -3994.03, -4132.63, 0.000, 0.000, 0.000, 15:26:27.529
186, -4519.77, -4647.45, -3976.27, -4111.46, 0.000, 0.000, 0.000, 15:26:27.530
187, -4510.75, -4642.70, -3941.75, -4120.01, 0.000, 0.000, 0.000, 15:26:27.533
188, -4513.54, -4650.59, -3982.29, -4114.75, 0.000, 0.000, 0.000, 15:26:27.533
189, -4500.30, -4647.02, -4020.09, -4109.97, 0.000, 0.000, 0.000, 15:26:27.533
190, -4486.89, -4630.04, -3992.32, -4104.62, 0.000, 0.000, 0.000, 15:26:27.533
191, -4508.28, -4638.95, -3941.73, -4068.15, 0.000, 0.000, 0.000, 15:26:27.534
192, -4502.56, -4639.21, -3928.61, -4103.61, 0.000, 0.000, 0.000, 15:26:27.534
193, -4509.08, -4647.10, -3957.10, -4134.77, 0.000, 0.000, 0.000, 15:26:27.540
194, -4507.64, -4630.87, -3932.05, -4112.79, 0.000, 0.000, 0.000, 15:26:27.541
195, -4476.15, -4607.87, -3967.76, -4087.43, 0.000, 0.000, 0.000, 15:26:27.543
196, -4503.08, -4620.95, -3974.44, -4070.01, 0.000, 0.000, 0.000, 15:26:27.544
197, -4495.75, -4622.08, -3938.74, -4116.29, 0.000, 0.000, 0.000, 15:26:27.544
198, -4492.38, -4621.91, -3978.58, -4110.02, 0.000, 0.000, 0.000, 15:26:27.544
199, -4497.55, -4608.20, -3980.26, -4059.66, 0.000, 0.000, 0.000, 15:26:27.634
200, -4495.87, -4625.13, -4001.44, -4093.00, 0.000, 0.000, 0.000, 15:26:27.634
0, -4508.07, -4624.38, -4016.67, -4071.08, 0.000, 0.000, 0.000, 15:26:27.634
1, -4522.98, -4643.66, -3954.90, -4139.96, 0.000, 0.000, 0.000, 15:26:27.635
2, -4511.51, -4638.01, -4000.83, -4100.78, 0.000, 0.000, 0.000, 15:26:27.635
3, -4496.25, -4628.98, -3947.58, -4074.91, 0.000, 0.000, 0.000, 15:26:27.640
4, -4485.60, -4636.75, -3983.69, -4148.61, 0.000, 0.000, 0.000, 15:26:27.640
5, -4508.19, -4643.66, -4011.73, -4114.79, 0.000, 0.000, 0.000, 15:26:27.641
6, -4518.16, -4659.09, -4025.04, -4171.97, 0.000, 0.000, 0.000, 15:26:27.641
7, -4522.82, -4657.78, -4031.97, -4122.51, 0.000, 0.000, 0.000, 15:26:27.641
8, -4531.13, -4656.08, -4014.10, -4145.80, 0.000, 0.000, 0.000, 15:26:27.641
9, -4512.16, -4648.07, -3982.07, -4143.81, 0.000, 0.000, 0.000, 15:26:27.651
10, -4491.23, -4626.04, -3939.03, -4098.12, 0.000, 0.000, 0.000, 15:26:27.651
11, -4487.73, -4623.95, -3967.54, -4081.80, 0.000, 0.000, 0.000, 15:26:27.653
12, -4487.29, -4618.78, -3979.37, -4129.18, 0.000, 0.000, 0.000, 15:26:27.653
13, -4488.33, -4622.19, -3993.01, -4119.65, 0.000, 0.000, 0.000, 15:26:27.654
14, -4460.79, -4605.87, -3911.60, -4043.79, 0.000, 0.000, 0.000, 15:26:27.654
15, -4505.38, -4630.73, -4034.53, -4130.31, 0.000, 0.000, 0.000, 15:26:27.668
16, -4507.39, -4633.39, -4001.39, -4072.09, 0.000, 0.000, 0.000, 15:26:27.669
17, -4484.28, -4623.24, -3958.84, -4085.29, 0.000, 0.000, 0.000, 15:26:27.785
18, -4476.68, -4617.06, -3951.62, -4023.12, 0.000, 0.000, 0.000, 15:26:27.785
19, -4475.55, -4614.22, -3975.80, -4101.31, 0.000, 0.000, 0.000, 15:26:27.785
20, -4491.00, -4625.84, -3966.33, -4131.77, 0.000, 0.000, 0.000, 15:26:27.785
21, -4503.50, -4639.38, -3988.48, -4120.80, 0.000, 0.000, 0.000, 15:26:27.789
22, -4491.65, -4629.96, -3978.94, -4094.25, 0.000, 0.000, 0.000, 15:26:27.790
23, -4484.87, -4610.36, -3971.76, -4077.65, 0.000, 0.000, 0.000, 15:26:27.790
24, -4489.88, -4616.18, -3939.60, -4088.02, 0.000, 0.000, 0.000, 15:26:27.790
25, -4486.16, -4619.62, -3978.86, -4086.84, 0.000, 0.000, 0.000, 15:26:27.790
26, -4473.74, -4602.95, -3925.77, -4047.71, 0.000, 0.000, 0.000, 15:26:27.790
27, -4480.34, -4603.46, -3984.33, -4105.00, 0.000, 0.000, 0.000, 15:26:27.791
28, -4482.38, -4614.18, -4012.28, -4072.94, 0.000, 0.000, 0.000, 15:26:27.791
29, -4479.78, -4626.03, -3989.80, -4143.41, 0.000, 0.000, 0.000, 15:26:27.791
30, -4494.97, -4628.21, -4010.47, -4079.94, 0.000, 0.000, 0.000, 15:26:27.792
31, -4503.76, -4638.03, -4034.77, -4106.32, 0.000, 0.000, 0.000, 15:26:27.792
32, -4514.02, -4652.60, -4019.74, -4171.90, 0.000, 0.000, 0.000, 15:26:27.792
33, -4503.25, -4640.64, -3977.88, -4117.89, 0.000, 0.000, 0.000, 15:26:27.799
34, -4498.69, -4640.38, -3984.83, -4127.94, 0.000, 0.000, 0.000, 15:26:27.800
35, -4500.31, -4642.32, -3955.24, -4111.50, 0.000, 0.000, 0.000, 15:26:27.800
36, -4492.06, -4630.54, -3987.50, -4093.60, 0.000, 0.000, 0.000, 15:26:27.800
37, -4481.22, -4620.10, -3988.54, -4108.09, 0.000, 0.000, 0.000, 15:26:27.800
38, -4480.17, -4599.69, -3932.80, -4086.91, 0.000, 0.000, 0.000, 15:26:27.800
39, -4473.34, -4609.22, -3952.56, -4048.41, 0.000, 0.000, 0.000, 15:26:27.801
40, -4486.06, -4615.14, -3971.90, -4101.01, 0.000, 0.000, 0.000, 15:26:27.801
41, -4499.62, -4626.06, -3980.63, -4109.68, 0.000, 0.000, 0.000, 15:26:27.801
42, -4498.54, -4626.99, -3946.84, -4076.86, 0.000, 0.000, 0.000, 15:26:27.801
43, -4491.53, -4627.95, -4011.33, -4106.09, 0.000, 0.000, 0.000, 15:26:27.801
44, -4499.54, -4629.61, -3943.22, -4129.52, 0.000, 0.000, 0.000, 15:26:27.801
45, -4496.05, -4635.93, -3959.65, -4094.31, 0.000, 0.000, 0.000, 15:26:27.813
46, -4482.82, -4617.84, -3952.38, -4076.52, 0.000, 0.000, 0.000, 15:26:27.813
47, -4477.26, -4605.76, -3990.35, -4067.24, 0.000, 0.000, 0.000, 15:26:27.813
48, -4481.51, -4603.71, -3942.01, -4109.85, 0.000, 0.000, 0.000, 15:26:27.814
49, -4481.81, -4604.14, -3964.35, -4081.69, 0.000, 0.000, 0.000, 15:26:27.814
50, -4487.51, -4599.96, -3932.73, -4064.49, 0.000, 0.000, 0.000, 15:26:27.814
51, -4485.68, -4608.80, -3929.71, -4089.81, 0.000, 0.000, 0.000, 15:26:27.814
52, -4491.98, -4615.22, -3950.32, -4072.78, 0.000, 0.000, 0.000, 15:26:27.814
53, -4490.94, -4606.66, -3980.66, -4063.51, 0.000, 0.000, 0.000, 15:26:27.815
54, -4491.94, -4624.06, -3968.62, -4076.96, 0.000, 0.000, 0.000, 15:26:27.815
55, -4486.16, -4619.17, -3908.99, -4110.86, 0.000, 0.000, 0.000, 15:26:27.815
56, -4508.78, -4637.99, -3983.22, -4110.54, 0.000, 0.000, 0.000, 15:26:27.815
57, -4514.06, -4640.68, -3950.53, -4103.90, 0.000, 0.000, 0.000, 15:26:27.815
58, -4510.22, -4646.77, -3941.23, -4104.85, 0.000, 0.000, 0.000, 15:26:27.816
59, -4511.54, -4647.67, -3980.58, -4114.43, 0.000, 0.000, 0.000, 15:26:27.816
60, -4506.00, -4636.96, -4010.95, -4139.71, 0.000, 0.000, 0.000, 15:26:27.816
61, -4493.01, -4626.66, -3946.04, -4109.66, 0.000, 0.000, 0.000, 15:26:27.816
62, -4491.16, -4609.18, -4016.97, -4091.95, 0.000, 0.000, 0.000, 15:26:27.816
63, -4489.09, -4623.45, -3999.83, -4100.44, 0.000, 0.000, 0.000, 15:26:27.817
64, -4491.94, -4616.11, -3999.74, -4103.14, 0.000, 0.000, 0.000, 15:26:27.817
65, -4505.64, -4629.74, -3986.66, -4128.31, 0.000, 0.000, 0.000, 15:26:27.822
66, -4484.68, -4619.07, -3934.55, -4081.15, 0.000, 0.000, 0.000, 15:26:27.822
67, -4499.47, -4622.64, -3975.47, -4106.08, 0.000, 0.000, 0.000, 15:26:27.822
68, -4503.68, -4627.91, -3928.85, -4088.07, 0.000, 0.000, 0.000, 15:26:27.822
69, -4499.51, -4619.96, -3971.47, -4111.66, 0.000, 0.000, 0.000, 15:26:27.823
70, -4496.94, -4621.86, -3991.80, -4108.58, 0.000, 0.000, 0.000, 15:26:27.823
71, -4485.16, -4609.13, -3963.63, -4071.55, 0.000, 0.000, 0.000, 15:26:27.823
72, -4488.37, -4624.10, -3956.94, -4102.99, 0.000, 0.000, 0.000, 15:26:27.823
73, -4486.23, -4626.18, -3941.37, -4095.88, 0.000, 0.000, 0.000, 15:26:27.827
74, -4481.67, -4613.57, -3892.62, -4094.02, 0.000, 0.000, 0.000, 15:26:27.827
75, -4484.53, -4617.34, -3970.80, -4093.09, 0.000, 0.000, 0.000, 15:26:27.828
76, -4495.06, -4623.01, -4039.66, -4117.30, 0.000, 0.000, 0.000, 15:26:27.828
77, -4507.42, -4633.13, -4008.11, -4088.57, 0.000, 0.000, 0.000, 15:26:27.828
78, -4503.08, -4630.69, -4003.18, -4075.73, 0.000, 0.000, 0.000, 15:26:27.829
79, -4512.30, -4634.03, -3970.91, -4126.99, 0.000, 0.000, 0.000, 15:26:27.829
80, -4516.88, -4634.99, -3912.40, -4105.35, 0.000, 0.000, 0.000, 15:26:27.829
81, -4514.81, -4641.38, -3951.90, -4141.53, 0.000, 0.000, 0.000, 15:26:27.832
82, -4507.84, -4627.91, -3975.29, -4094.71, 0.000, 0.000, 0.000, 15:26:27.833
83, -4503.93, -4629.74, -3950.85, -4100.59, 0.000, 0.000, 0.000, 15:26:27.834
84, -4503.00, -4624.72, -3981.12, -4133.93, 0.000, 0.000, 0.000, 15:26:27.834
85, -4496.19, -4623.57, -4002.85, -4090.66, 0.000, 0.000, 0.000, 15:26:27.834
86, -4499.43, -4624.29, -3997.69, -4099.06, 0.000, 0.000, 0.000, 15:26:27.835
87, -4491.30, -4622.69, -4015.21, -4125.01, 0.000, 0.000, 0.000, 15:26:27.835
88, -4496.87, -4621.35, -3963.62, -4097.66, 0.000, 0.000, 0.000, 15:26:27.835
89, -4474.25, -4616.61, -3968.53, -4080.52, 0.000, 0.000, 0.000, 15:26:27.835
90, -4481.61, -4613.32, -3948.03, -4089.14, 0.000, 0.000, 0.000, 15:26:27.835
91, -4494.14, -4611.97, -3922.94, -4079.44, 0.000, 0.000, 0.000, 15:26:27.836
92, -4494.23, -4627.51, -3958.24, -4082.47, 0.000, 0.000, 0.000, 15:26:27.836
93, -4503.57, -4633.58, -3982.48, -4110.48, 0.000, 0.000, 0.000, 15:26:27.837
94, -4495.71, -4633.58, -3948.64, -4083.64, 0.000, 0.000, 0.000, 15:26:27.837
95, -4497.44, -4623.59, -3930.14, -4081.30, 0.000, 0.000, 0.000, 15:26:27.837
96, -4501.59, -4641.09, -3937.10, -4110.07, 0.000, 0.000, 0.000, 15:26:27.837
97, -4501.20, -4638.21, -3985.43, -4118.04, 0.000, 0.000, 0.000, 15:26:27.862
98, -4481.95, -4621.91, -3998.44, -4097.28, 0.000, 0.000, 0.000, 15:26:27.862
99, -4490.80, -4625.46, -4002.87, -4103.23, 0.000, 0.000, 0.000, 15:26:27.863
100, -4506.79, -4634.45, -3981.15, -4121.58, 0.000, 0.000, 0.000, 15:26:27.863
101, -4495.75, -4636.80, -3959.76, -4127.95, 0.000, 0.000, 0.000, 15:26:27.863
102, -4489.10, -4619.09, -3966.48, -4125.76, 0.000, 0.000, 0.000, 15:26:27.863
103, -4493.88, -4624.05, -3947.37, -4110.07, 0.000, 0.000, 0.000, 15:26:27.863
104, -4513.89, -4630.89, -3989.04, -4116.71, 0.000, 0.000, 0.000, 15:26:27.863
105, -4518.69, -4650.13, -4058.39, -4148.54, 0.000, 0.000, 0.000, 15:26:27.903
106, -4510.45, -4639.77, -3961.08, -4098.75, 0.000, 0.000, 0.000, 15:26:27.903
107, -4501.07, -4637.19, -3967.83, -4085.59, 0.000, 0.000, 0.000, 15:26:27.904
108, -4507.67, -4637.94, -4024.02, -4111.57, 0.000, 0.000, 0.000, 15:26:27.904
109, -4503.78, -4616.60, -4025.28, -4077.46, 0.000, 0.000, 0.000, 15:26:27.907
110, -4492.33, -4611.61, -3972.29, -4058.01, 0.000, 0.000, 0.000, 15:26:27.908
111, -4499.85, -4628.55, -3961.15, -4090.55, 0.000, 0.000, 0.000, 15:26:27.926
112, -4504.48, -4636.90, -3993.97, -4116.33, 0.000, 0.000, 0.000, 15:26:27.926
113, -4501.16, -4632.77, -3988.13, -4101.14, 0.000, 0.000, 0.000, 15:26:27.926
114, -4490.55, -4623.83, -3956.15, -4073.74, 0.000, 0.000, 0.000, 15:26:27.926
115, -4500.65, -4622.61, -3937.28, -4077.55, 0.000, 0.000, 0.000, 15:26:27.926
116, -4497.42, -4639.30, -3962.25, -4110.99, 0.000, 0.000, 0.000, 15:26:27.927
117, -4488.40, -4627.95, -3945.99, -4119.83, 0.000, 0.000, 0.000, 15:26:27.953
118, -4493.68, -4630.59, -3969.00, -4098.62, 0.000, 0.000, 0.000, 15:26:27.953
119, -4498.94, -4629.41, -3994.94, -4086.59, 0.000, 0.000, 0.000, 15:26:27.953
120, -4496.36, -4630.42, -3943.85, -4101.52, 0.000, 0.000, 0.000, 15:26:27.953
121, -4510.13, -4629.46, -4009.77, -4140.41, 0.000, 0.000, 0.000, 15:26:27.953
122, -4492.06, -4616.22, -3978.32, -4101.66, 0.000, 0.000, 0.000, 15:26:27.954
123, -4492.56, -4618.51, -3995.34, -4077.49, 0.000, 0.000, 0.000, 15:26:27.989
124, -4509.85, -4633.29, -3968.73, -4075.06, 0.000, 0.000, 0.000, 15:26:27.990
125, -4510.03, -4642.37, -4038.66, -4116.85, 0.000, 0.000, 0.000, 15:26:27.990
126, -4495.11, -4633.77, -3995.24, -4102.84, 0.000, 0.000, 0.000, 15:26:27.990
127, -4517.32, -4650.57, -4036.51, -4158.33, 0.000, 0.000, 0.000, 15:26:27.990
128, -4522.72, -4654.27, -3990.25, -4105.19, 0.000, 0.000, 0.000, 15:26:27.991
129, -4518.35, -4640.05, -3990.56, -4109.28, 0.000, 0.000, 0.000, 15:26:27.993
130, -4491.26, -4615.94, -3956.56, -4077.74, 0.000, 0.000, 0.000, 15:26:27.993
131, -4498.57, -4614.30, -3912.20, -4073.02, 0.000, 0.000, 0.000, 15:26:27.994
132, -4476.78, -4612.04, -3948.84, -4095.00, 0.000, 0.000, 0.000, 15:26:27.994
133, -4481.88, -4617.42, -3970.65, -4111.44, 0.000, 0.000, 0.000, 15:26:28.077
134, -4486.19, -4607.39, -3968.17, -4109.62, 0.000, 0.000, 0.000, 15:26:28.077
135, -4478.16, -4615.60, -3970.39, -4084.60, 0.000, 0.000, 0.000, 15:26:28.077
136, -4501.12, -4637.52, -3989.14, -4141.55, 0.000, 0.000, 0.000, 15:26:28.077
137, -4486.49, -4611.41, -3963.53, -4089.37, 0.000, 0.000, 0.000, 15:26:28.077
138, -4490.30, -4626.97, -3986.90, -4097.53, 0.000, 0.000, 0.000, 15:26:28.077
139, -4512.85, -4631.85, -4004.14, -4094.86, 0.000, 0.000, 0.000, 15:26:28.078
140, -4528.02, -4648.69, -4011.72, -4120.77, 0.000, 0.000, 0.000, 15:26:28.078
141, -4521.81, -4656.13, -3966.05, -4114.61, 0.000, 0.000, 0.000, 15:26:28.078
142, -4508.73, -4640.79, -3935.90, -4108.38, 0.000, 0.000, 0.000, 15:26:28.078
143, -4491.43, -4625.68, -3926.12, -4097.21, 0.000, 0.000, 0.000, 15:26:28.078
144, -4477.87, -4630.18, -3984.98, -4131.25, 0.000, 0.000, 0.000, 15:26:28.078
145, -4494.78, -4620.30, -3948.33, -4098.82, 0.000, 0.000, 0.000, 15:26:28.081
146, -4488.02, -4610.52, -3969.87, -4064.50, 0.000, 0.000, 0.000, 15:26:28.081
147, -4481.80, -4609.79, -3925.38, -4100.82, 0.000, 0.000, 0.000, 15:26:28.083
148, -4483.63, -4618.44, -3961.26, -4101.52, 0.000, 0.000, 0.000, 15:26:28.083
149, -4492.38, -4623.06, -3953.94, -4117.42, 0.000, 0.000, 0.000, 15:26:28.084
150, -4483.67, -4608.49, -3959.91, -4076.39, 0.000, 0.000, 0.000, 15:26:28.084
151, -4504.46, -4615.26, -3934.64, -4101.02, 0.000, 0.000, 0.000, 15:26:28.100
152, -4512.58, -4639.45, -4003.03, -4107.94, 0.000, 0.000, 0.000, 15:26:28.100
153, -4503.48, -4639.12, -4046.99, -4097.29, 0.000, 0.000, 0.000, 15:26:28.113
154, -4509.86, -4633.99, -4019.46, -4094.92, 0.000, 0.000, 0.000, 15:26:28.113
155, -4509.66, -4633.74, -3917.43, -4072.26, 0.000, 0.000, 0.000, 15:26:28.114
156, -4506.82, -4635.35, -3965.87, -4099.36, 0.000, 0.000, 0.000, 15:26:28.114
157, -4512.29, -4633.02, -3987.61, -4117.29, 0.000, 0.000, 0.000, 15:26:28.145
158, -4512.59, -4635.35, -3972.76, -4097.12, 0.000, 0.000, 0.000, 15:26:28.145
159, -4513.78, -4624.18, -3955.99, -4112.33, 0.000, 0.000, 0.000, 15:26:28.145
160, -4510.36, -4633.14, -4002.08, -4088.25, 0.000, 0.000, 0.000, 15:26:28.145
161, -4490.16, -4622.15, -3989.82, -4131.12, 0.000, 0.000, 0.000, 15:26:28.146
162, -4489.05, -4617.66, -3956.18, -4093.99, 0.000, 0.000, 0.000, 15:26:28.146
163, -4487.48, -4607.81, -3946.21, -4091.55, 0.000, 0.000, 0.000, 15:26:28.159
164, -4490.49, -4611.85, -3908.84, -4079.31, 0.000, 0.000, 0.000, 15:26:28.159
165, -4494.48, -4616.81, -3949.91, -4073.61, 0.000, 0.000, 0.000, 15:26:28.189
166, -4493.09, -4621.36, -3945.50, -4095.17, 0.000, 0.000, 0.000, 15:26:28.189
167, -4507.17, -4613.04, -3982.51, -4106.84, 0.000, 0.000, 0.000, 15:26:28.209
168, -4511.62, -4632.04, -3995.53, -4087.75, 0.000, 0.000, 0.000, 15:26:28.210
169, -4522.10, -4642.80, -3999.75, -4136.51, 0.000, 0.000, 0.000, 15:26:28.212
170, -4504.04, -4618.49, -3946.91, -4098.09, 0.000, 0.000, 0.000, 15:26:28.212
171, -4501.09, -4615.45, -3949.35, -4088.14, 0.000, 0.000, 0.000, 15:26:28.212
172, -4483.86, -4627.00, -4011.81, -4118.96, 0.000, 0.000, 0.000, 15:26:28.212
173, -4509.31, -4639.40, -3960.18, -4126.81, 0.000, 0.000, 0.000, 15:26:28.212
174, -4515.29, -4636.73, -4021.71, -4073.04, 0.000, 0.000, 0.000, 15:26:28.212
175, -4526.02, -4649.84, -3975.96, -4110.50, 0.000, 0.000, 0.000, 15:26:28.219
176, -4506.61, -4633.37, -4005.44, -4085.50, 0.000, 0.000, 0.000, 15:26:28.219
177, -4523.51, -4645.57, -3976.63, -4111.03, 0.000, 0.000, 0.000, 15:26:28.235
178, -4506.86, -4638.48, -4004.68, -4123.25, 0.000, 0.000, 0.000, 15:26:28.235
179, -4518.02, -4652.04, -4031.04, -4107.25, 0.000, 0.000, 0.000, 15:26:28.235
180, -4523.10, -4664.34, -4011.39, -4118.94, 0.000, 0.000, 0.000, 15:26:28.235
181, -4510.35, -4632.33, -3968.22, -4116.76, 0.000, 0.000, 0.000, 15:26:28.249
182, -4504.22, -4629.04, -3959.24, -4104.98, 0.000, 0.000, 0.000, 15:26:28.250
183, -4512.04, -4633.46, -3994.17, -4048.91, 0.000, 0.000, 0.000, 15:26:28.274
184, -4501.17, -4630.53, -3946.90, -4092.88, 0.000, 0.000, 0.000, 15:26:28.274
185, -4503.07, -4620.89, -3939.81, -4103.23, 0.000, 0.000, 0.000, 15:26:28.274
186, -4519.52, -4638.46, -3990.79, -4115.36, 0.000, 0.000, 0.000, 15:26:28.274
187, -4504.56, -4639.56, -3981.37, -4085.72, 0.000, 0.000, 0.000, 15:26:28.278
188, -4512.59, -4633.33, -3994.07, -4114.89, 0.000, 0.000, 0.000, 15:26:28.279
189, -4502.42, -4627.58, -3971.66, -4091.54, 0.000, 0.000, 0.000, 15:26:28.305
190, -4494.47, -4622.60, -3928.26, -4105.92, 0.000, 0.000, 0.000, 15:26:28.305
191, -4498.99, -4618.28, -4000.62, -4082.09, 0.000, 0.000, 0.000, 15:26:28.306
192, -4497.44, -4620.53, -3947.72, -4064.36, 0.000, 0.000, 0.000, 15:26:28.306
193, -4499.95, -4618.66, -3924.32, -4115.19, 0.000, 0.000, 0.000, 15:26:28.311
194, -4494.83, -4617.80, -3988.10, -4080.41, 0.000, 0.000, 0.000, 15:26:28.311
195, -4504.30, -4632.26, -4021.01, -4070.30, 0.000, 0.000, 0.000, 15:26:28.324
196, -4507.33, -4629.18, -3913.83, -4116.87, 0.000, 0.000, 0.000, 15:26:28.324
197, -4526.05, -4634.61, -3959.53, -4179.69, 0.000, 0.000, 0.000, 15:26:28.325
198, -4514.07, -4622.53, -3976.35, -4107.47, 0.000, 0.000, 0.000, 15:26:28.325
199, -4498.59, -4619.20, -3995.17, -4121.09, 0.000, 0.000, 0.000, 15:26:28.352
200, -4511.82, -4627.85, -3937.33, -4111.52, 0.000, 0.000, 0.000, 15:26:28.352
0, -4509.66, -4633.94, -3948.35, -4121.27, 0.000, 0.000, 0.000, 15:26:28.353
1, -4506.47, -4637.47, -4036.71, -4099.26, 0.000, 0.000, 0.000, 15:26:28.354
2, -4506.66, -4631.77, -4000.67, -4137.30, 0.000, 0.000, 0.000, 15:26:28.354
3, -4497.80, -4640.14, -3952.45, -4093.00, 0.000, 0.000, 0.000, 15:26:28.375
4, -4512.66, -4653.95, -3981.84, -4118.23, 0.000, 0.000, 0.000, 15:26:28.375
5, -4498.96, -4624.55, -3976.85, -4118.02, 0.000, 0.000, 0.000, 15:26:28.380
6, -4500.56, -4628.26, -3972.56, -4055.00, 0.000, 0.000, 0.000, 15:26:28.380
7, -4511.35, -4638.69, -3974.17, -4190.18, 0.000, 0.000, 0.000, 15:26:28.402
8, -4510.53, -4637.01, -3955.32, -4029.03, 0.000, 0.000, 0.000, 15:26:28.402
9, -4492.19, -4628.41, -3947.95, -4085.16, 0.000, 0.000, 0.000, 15:26:28.402
10, -4501.98, -4625.17, -3951.73, -4101.38, 0.000, 0.000, 0.000, 15:26:28.402
11, -4490.99, -4608.12, -3975.77, -4113.18, 0.000, 0.000, 0.000, 15:26:28.402
12, -4489.27, -4603.36, -4012.34, -4082.91, 0.000, 0.000, 0.000, 15:26:28.403
13, -4491.81, -4592.96, -3980.77, -4096.26, 0.000, 0.000, 0.000, 15:26:28.414
14, -4474.48, -4588.34, -3945.89, -4060.13, 0.000, 0.000, 0.000, 15:26:28.415
15, -4487.82, -4606.30, -3984.07, -4065.73, 0.000, 0.000, 0.000, 15:26:28.431
16, -4492.40, -4603.08, -3987.77, -4106.11, 0.000, 0.000, 0.000, 15:26:28.431
17, -4494.79, -4600.97, -3940.22, -4069.13, 0.000, 0.000, 0.000, 15:26:28.431
18, -4502.19, -4611.65, -3935.16, -4071.64, 0.000, 0.000, 0.000, 15:26:28.431
19, -4518.30, -4631.98, -3972.90, -4093.01, 0.000, 0.000, 0.000, 15:26:28.444
20, -4508.18, -4643.16, -4004.88, -4124.69, 0.000, 0.000, 0.000, 15:26:28.444
21, -4491.36, -4620.00, -3926.18, -4089.93, 0.000, 0.000, 0.000, 15:26:28.469
22, -4497.74, -4617.65, -3973.70, -4102.75, 0.000, 0.000, 0.000, 15:26:28.469
23, -4508.97, -4628.07, -3985.70, -4112.74, 0.000, 0.000, 0.000, 15:26:28.469
24, -4494.40, -4628.81, -3989.54, -4106.80, 0.000, 0.000, 0.000, 15:26:28.470
25, -4505.29, -4639.35, -3990.90, -4120.13, 0.000, 0.000, 0.000, 15:26:28.479
26, -4521.47, -4649.02, -3997.67, -4105.30, 0.000, 0.000, 0.000, 15:26:28.479
27, -4524.93, -4637.63, -3961.97, -4144.27, 0.000, 0.000, 0.000, 15:26:28.509
28, -4524.20, -4637.48, -4004.04, -4128.49, 0.000, 0.000, 0.000, 15:26:28.510
29, -4501.81, -4621.31, -3981.20, -4067.72, 0.000, 0.000, 0.000, 15:26:28.510
30, -4495.56, -4615.57, -3930.81, -4096.19, 0.000, 0.000, 0.000, 15:26:28.510
31, -4504.37, -4629.31, -3993.14, -4110.14, 0.000, 0.000, 0.000, 15:26:28.510
32, -4505.83, -4623.73, -3984.97, -4105.57, 0.000, 0.000, 0.000, 15:26:28.510
33, -4498.71, -4614.66, -3904.44, -4110.38, 0.000, 0.000, 0.000, 15:26:28.519
34, -4506.22, -4627.84, -4014.50, -4094.99, 0.000, 0.000, 0.000, 15:26:28.520
35, -4501.90, -4619.53, -3980.37, -4085.92, 0.000, 0.000, 0.000, 15:26:28.545
36, -4495.41, -4616.62, -3955.82, -4107.16, 0.000, 0.000, 0.000, 15:26:28.545
37, -4496.03, -4627.40, -3974.03, -4115.82, 0.000, 0.000, 0.000, 15:26:28.545
38, -4490.25, -4627.83, -3987.59, -4118.76, 0.000, 0.000, 0.000, 15:26:28.545
39, -4514.73, -4637.75, -3986.56, -4101.36, 0.000, 0.000, 0.000, 15:26:28.549
40, -4500.01, -4630.78, -3994.45, -4114.96, 0.000, 0.000, 0.000, 15:26:28.549
41, -4493.73, -4619.06, -3928.31, -4075.92, 0.000, 0.000, 0.000, 15:26:28.549
42, -4487.67, -4623.00, -3935.71, -4127.50, 0.000, 0.000, 0.000, 15:26:28.550
43, -4501.56, -4623.54, -3965.64, -4096.45, 0.000, 0.000, 0.000, 15:26:28.564
44, -4497.65, -4626.40, -3985.17, -4088.29, 0.000, 0.000, 0.000, 15:26:28.564
45, -4493.00, -4624.62, -3986.60, -4097.45, 0.000, 0.000, 0.000, 15:26:28.581
46, -4509.91, -4632.25, -3954.09, -4093.80, 0.000, 0.000, 0.000, 15:26:28.581
47, -4512.34, -4643.61, -3972.51, -4136.20, 0.000, 0.000, 0.000, 15:26:28.581
48, -4508.70, -4640.76, -4029.00, -4121.09, 0.000, 0.000, 0.000, 15:26:28.582
49, -4506.79, -4631.05, -4018.65, -4109.71, 0.000, 0.000, 0.000, 15:26:28.609
50, -4499.89, -4638.45, -3996.65, -4109.97, 0.000, 0.000, 0.000, 15:26:28.610
51, -4502.85, -4631.94, -4007.77, -4093.10, 0.000, 0.000, 0.000, 15:26:28.610
52, -4503.51, -4631.77, -3993.41, -4088.08, 0.000, 0.000, 0.000, 15:26:28.610
53, -4505.96, -4627.63, -3987.14, -4109.53, 0.000, 0.000, 0.000, 15:26:28.610
54, -4503.93, -4635.79, -3969.06, -4071.41, 0.000, 0.000, 0.000, 15:26:28.611
55, -4505.85, -4633.69, -3977.52, -4099.94, 0.000, 0.000, 0.000, 15:26:28.634
56, -4508.81, -4630.44, -3995.11, -4089.01, 0.000, 0.000, 0.000, 15:26:28.634
57, -4493.61, -4616.74, -3998.75, -4083.25, 0.000, 0.000, 0.000, 15:26:28.661
58, -4484.67, -4612.38, -3960.89, -4054.19, 0.000, 0.000, 0.000, 15:26:28.661
59, -4489.13, -4617.31, -3953.64, -4090.22, 0.000, 0.000, 0.000, 15:26:28.662
60, -4490.56, -4620.55, -3966.90, -4080.41, 0.000, 0.000, 0.000, 15:26:28.662
61, -4493.19, -4613.08, -3954.98, -4087.32, 0.000, 0.000, 0.000, 15:26:28.669
62, -4503.28, -4633.87, -3982.40, -4113.52, 0.000, 0.000, 0.000, 15:26:28.670
63, -4512.66, -4639.74, -3964.79, -4147.21, 0.000, 0.000, 0.000, 15:26:28.677
64, -4491.63, -4628.73, -3958.51, -4098.56, 0.000, 0.000, 0.000, 15:26:28.677
65, -4497.91, -4612.04, -3982.64, -4085.73, 0.000, 0.000, 0.000, 15:26:28.678
66, -4487.90, -4600.88, -3968.47, -4099.00, 0.000, 0.000, 0.000, 15:26:28.678
67, -4512.55, -4625.22, -3977.79, -4110.46, 0.000, 0.000, 0.000, 15:26:28.684
68, -4507.22, -4629.52, -3979.24, -4094.79, 0.000, 0.000, 0.000, 15:26:28.696
69, -4509.19, -4621.74, -3996.02, -4114.96, 0.000, 0.000, 0.000, 15:26:28.713
70, -4503.75, -4610.00, -3958.94, -4096.13, 0.000, 0.000, 0.000, 15:26:28.713
71, -4506.61, -4629.93, -3987.12, -4127.16, 0.000, 0.000, 0.000, 15:26:28.713
72, -4500.12, -4636.24, -3982.19, -4088.45, 0.000, 0.000, 0.000, 15:26:28.714
73, -4506.59, -4625.78, -3936.01, -4086.96, 0.000, 0.000, 0.000, 15:26:28.715
74, -4493.72, -4619.68, -3973.22, -4110.03, 0.000, 0.000, 0.000, 15:26:28.715
75, -4492.51, -4625.21, -3997.48, -4085.81, 0.000, 0.000, 0.000, 15:26:28.730
76, -4498.96, -4616.86, -3945.42, -4101.01, 0.000, 0.000, 0.000, 15:26:28.730
77, -4499.11, -4614.11, -3929.90, -4126.83, 0.000, 0.000, 0.000, 15:26:28.731
78, -4492.49, -4614.56, -3958.24, -4096.55, 0.000, 0.000, 0.000, 15:26:28.731
79, -4500.62, -4621.79, -3989.78, -4117.29, 0.000, 0.000, 0.000, 15:26:28.744
80, -4498.21, -4613.67, -3926.22, -4079.51, 0.000, 0.000, 0.000, 15:26:28.745
81, -4496.24, -4615.07, -3978.74, -4070.68, 0.000, 0.000, 0.000, 15:26:28.759
82, -4496.70, -4623.46, -3995.84, -4110.64, 0.000, 0.000, 0.000, 15:26:28.760
83, -4498.39, -4642.36, -4025.53, -4098.45, 0.000, 0.000, 0.000, 15:26:28.760
84, -4498.97, -4638.35, -3993.06, -4108.50, 0.000, 0.000, 0.000, 15:26:28.760
85, -4495.40, -4630.35, -3956.70, -4116.44, 0.000, 0.000, 0.000, 15:26:28.774
86, -4504.16, -4640.06, -3997.24, -4132.17, 0.000, 0.000, 0.000, 15:26:28.775
87, -4494.62, -4624.47, -4001.49, -4099.93, 0.000, 0.000, 0.000, 15:26:28.790
88, -4506.93, -4638.65, -4018.05, -4126.70, 0.000, 0.000, 0.000, 15:26:28.790
89, -4521.41, -4640.11, -3960.35, -4112.64, 0.000, 0.000, 0.000, 15:26:28.804
90, -4512.10, -4630.24, -4006.75, -4120.20, 0.000, 0.000, 0.000, 15:26:28.804
91, -4512.84, -4632.30, -3902.36, -4130.95, 0.000, 0.000, 0.000, 15:26:28.819
92, -4507.31, -4616.79, -3983.38, -4087.13, 0.000, 0.000, 0.000, 15:26:28.820
93, -4485.99, -4604.48, -3919.72, -4098.17, 0.000, 0.000, 0.000, 15:26:28.820
94, -4492.76, -4613.65, -3955.45, -4065.66, 0.000, 0.000, 0.000, 15:26:28.821
95, -4511.30, -4624.16, -4015.69, -4098.42, 0.000, 0.000, 0.000, 15:26:28.821
96, -4497.87, -4615.80, -3917.76, -4065.76, 0.000, 0.000, 0.000, 15:26:28.821
97, -4496.84, -4622.69, -4021.90, -4105.25, 0.000, 0.000, 0.000, 15:26:28.834
98, -4486.70, -4616.60, -3955.37, -4097.15, 0.000, 0.000, 0.000, 15:26:28.834
99, -4489.92, -4607.75, -3928.33, -4093.26, 0.000, 0.000, 0.000, 15:26:28.849
100, -4509.94, -4639.52, -3989.71, -4133.62, 0.000, 0.000, 0.000, 15:26:28.849
101, -4497.74, -4631.60, -4017.35, -4093.06, 0.000, 0.000, 0.000, 15:26:28.850
102, -4507.14, -4641.38, -3962.86, -4117.24, 0.000, 0.000, 0.000, 15:26:28.850
103, -4517.92, -4648.03, -3963.95, -4116.36, 0.000, 0.000, 0.000, 15:26:28.864
104, -4511.32, -4637.84, -3940.75, -4127.02, 0.000, 0.000, 0.000, 15:26:28.864
105, -4498.20, -4625.74, -3970.97, -4104.87, 0.000, 0.000, 0.000, 15:26:28.880
106, -4485.47, -4615.43, -3988.07, -4067.80, 0.000, 0.000, 0.000, 15:26:28.880
107, -4485.40, -4608.28, -3934.68, -4082.33, 0.000, 0.000, 0.000, 15:26:28.880
108, -4483.38, -4607.00, -3980.64, -4086.12, 0.000, 0.000, 0.000, 15:26:28.880
109, -4485.23, -4605.32, -4010.39, -4096.21, 0.000, 0.000, 0.000, 15:26:28.895
110, -4496.36, -4619.04, -4011.51, -4078.76, 0.000, 0.000, 0.000, 15:26:28.895
111, -4522.17, -4631.03, -3984.26, -4095.76, 0.000, 0.000, 0.000, 15:26:28.909
112, -4503.78, -4629.31, -3956.26, -4091.02, 0.000, 0.000, 0.000, 15:26:28.909
113, -4484.65, -4625.17, -3912.30, -4093.14, 0.000, 0.000, 0.000, 15:26:28.924
114, -4481.57, -4619.14, -3932.51, -4075.39, 0.000, 0.000, 0.000, 15:26:28.925
115, -4491.77, -4633.90, -3958.72, -4125.02, 0.000, 0.000, 0.000, 15:26:28.925
116, -4507.08, -4641.47, -3996.67, -4134.69, 0.000, 0.000, 0.000, 15:26:28.925
117, -4509.02, -4642.85, -4013.54, -4108.97, 0.000, 0.000, 0.000, 15:26:28.957
118, -4508.05, -4650.62, -4019.14, -4128.20, 0.000, 0.000, 0.000, 15:26:28.957
119, -4502.00, -4643.56, -3984.50, -4113.24, 0.000, 0.000, 0.000, 15:26:28.957
120, -4486.20, -4617.99, -3896.94, -4065.79, 0.000, 0.000, 0.000, 15:26:28.957
121, -4461.98, -4605.17, -3963.25, -4101.30, 0.000, 0.000, 0.000, 15:26:28.957
122, -4474.06, -4598.87, -3950.76, -4083.06, 0.000, 0.000, 0.000, 15:26:28.957
123, -4501.00, -4612.50, -4010.82, -4065.62, 0.000, 0.000, 0.000, 15:26:28.970
124, -4508.88, -4624.92, -4002.61, -4096.71, 0.000, 0.000, 0.000, 15:26:28.970
125, -4504.27, -4628.87, -3958.47, -4093.26, 0.000, 0.000, 0.000, 15:26:28.984
126, -4499.13, -4628.28, -3979.82, -4098.88, 0.000, 0.000, 0.000, 15:26:28.984
127, -4500.55, -4630.21, -3965.24, -4083.73, 0.000, 0.000, 0.000, 15:26:28.984
128, -4505.80, -4624.83, -3970.88, -4061.48, 0.000, 0.000, 0.000, 15:26:28.984
129, -4510.42, -4631.13, -3995.25, -4155.21, 0.000, 0.000, 0.000, 15:26:28.999
130, -4508.53, -4636.66, -4010.32, -4154.88, 0.000, 0.000, 0.000, 15:26:28.999
131, -4514.64, -4640.60, -3978.20, -4138.13, 0.000, 0.000, 0.000, 15:26:29.014
132, -4517.53, -4634.14, -3958.03, -4098.59, 0.000, 0.000, 0.000, 15:26:29.014
133, -4493.81, -4622.18, -3909.60, -4077.27, 0.000, 0.000, 0.000, 15:26:29.015
134, -4484.28, -4603.61, -3939.31, -4111.00, 0.000, 0.000, 0.000, 15:26:29.015
135, -4489.61, -4615.84, -3963.70, -4088.42, 0.000, 0.000, 0.000, 15:26:29.032
136, -4495.43, -4612.10, -3994.32, -4143.66, 0.000, 0.000, 0.000, 15:26:29.033
137, -4496.58, -4608.97, -3944.16, -4090.64, 0.000, 0.000, 0.000, 15:26:29.037
138, -4487.75, -4614.72, -3982.26, -4132.00, 0.000, 0.000, 0.000, 15:26:29.038
139, -4498.86, -4619.20, -3982.08, -4127.55, 0.000, 0.000, 0.000, 15:26:29.046
140, -4493.33, -4623.42, -3981.33, -4118.37, 0.000, 0.000, 0.000, 15:26:29.046
141, -4488.43, -4617.99, -3983.69, -4082.56, 0.000, 0.000, 0.000, 15:26:29.060
142, -4485.11, -4620.27, -3938.06, -4084.03, 0.000, 0.000, 0.000, 15:26:29.060
143, -4502.62, -4621.96, -3982.20, -4047.32, 0.000, 0.000, 0.000, 15:26:29.060
144, -4502.62, -4634.95, -3992.02, -4085.68, 0.000, 0.000, 0.000, 15:26:29.060
145, -4500.03, -4621.96, -3939.73, -4112.51, 0.000, 0.000, 0.000, 15:26:29.076
146, -4492.97, -4622.08, -3940.43, -4113.15, 0.000, 0.000, 0.000, 15:26:29.076
147, -4497.49, -4617.48, -3955.06, -4175.67, 0.000, 0.000, 0.000, 15:26:29.089
148, -4495.97, -4612.19, -3965.08, -4072.19, 0.000, 0.000, 0.000, 15:26:29.089
149, -4488.73, -4608.41, -3961.32, -4066.52, 0.000, 0.000, 0.000, 15:26:29.090
150, -4492.45, -4616.86, -4004.43, -4122.70, 0.000, 0.000, 0.000, 15:26:29.090
151, -4497.74, -4623.55, -3971.34, -4120.22, 0.000, 0.000, 0.000, 15:26:29.113
152, -4497.47, -4626.10, -3970.47, -4016.76, 0.000, 0.000, 0.000, 15:26:29.113
153, -4496.53, -4618.18, -3967.57, -4059.50, 0.000, 0.000, 0.000, 15:26:29.119
154, -4491.77, -4618.77, -3927.69, -4158.97, 0.000, 0.000, 0.000, 15:26:29.119
155, -4499.14, -4615.53, -3996.80, -4022.11, 0.000, 0.000, 0.000, 15:26:29.119
156, -4491.09, -4612.27, -3977.82, -4077.45, 0.000, 0.000, 0.000, 15:26:29.119
157, -4499.38, -4613.68, -4011.82, -4099.12, 0.000, 0.000, 0.000, 15:26:29.134
158, -4497.91, -4616.05, -3949.64, -4105.16, 0.000, 0.000, 0.000, 15:26:29.134
159, -4506.79, -4628.29, -3973.03, -4129.65, 0.000, 0.000, 0.000, 15:26:29.166
160, -4517.11, -4633.87, -4003.87, -4129.22, 0.000, 0.000, 0.000, 15:26:29.167
161, -4516.77, -4631.82, -4007.09, -4129.08, 0.000, 0.000, 0.000, 15:26:29.168
162, -4506.95, -4622.00, -3978.69, -4073.98, 0.000, 0.000, 0.000, 15:26:29.169
163, -4503.00, -4626.14, -3976.16, -4094.94, 0.000, 0.000, 0.000, 15:26:29.177
164, -4499.00, -4623.97, -3987.19, -4157.38, 0.000, 0.000, 0.000, 15:26:29.177
165, -4494.06, -4614.47, -3925.87, -4085.70, 0.000, 0.000, 0.000, 15:26:29.179
166, -4502.17, -4619.28, -3935.17, -4069.98, 0.000, 0.000, 0.000, 15:26:29.179
167, -4505.73, -4636.04, -4021.16, -4125.63, 0.000, 0.000, 0.000, 15:26:29.179
168, -4510.11, -4639.72, -3997.18, -4112.13, 0.000, 0.000, 0.000, 15:26:29.179
169, -4507.80, -4635.85, -3966.38, -4091.76, 0.000, 0.000, 0.000, 15:26:29.194
170, -4488.62, -4625.61, -3925.54, -4123.29, 0.000, 0.000, 0.000, 15:26:29.194
171, -4493.92, -4620.69, -3959.68, -4141.99, 0.000, 0.000, 0.000, 15:26:29.213
172, -4501.44, -4630.68, -3993.54, -4102.05, 0.000, 0.000, 0.000, 15:26:29.214
173, -4502.79, -4625.12, -3960.21, -4138.55, 0.000, 0.000, 0.000, 15:26:29.214
174, -4509.16, -4626.02, -3997.69, -4092.22, 0.000, 0.000, 0.000, 15:26:29.214
175, -4513.66, -4633.41, -3997.74, -4076.37, 0.000, 0.000, 0.000, 15:26:29.224
176, -4514.96, -4634.98, -3942.45, -4109.49, 0.000, 0.000, 0.000, 15:26:29.225
177, -4521.58, -4632.47, -3970.53, -4105.06, 0.000, 0.000, 0.000, 15:26:29.242
178, -4502.89, -4629.44, -3966.95, -4109.71, 0.000, 0.000, 0.000, 15:26:29.242
179, -4510.37, -4639.19, -3996.73, -4080.69, 0.000, 0.000, 0.000, 15:26:29.243
180, -4512.07, -4623.11, -3979.88, -4116.76, 0.000, 0.000, 0.000, 15:26:29.243
181, -4504.53, -4618.25, -3939.21, -4147.60, 0.000, 0.000, 0.000, 15:26:29.276
182, -4494.26, -4614.28, -4016.63, -4146.39, 0.000, 0.000, 0.000, 15:26:29.277
183, -4489.21, -4609.14, -3950.45, -4092.88, 0.000, 0.000, 0.000, 15:26:29.277
184, -4501.06, -4622.52, -4011.06, -4100.14, 0.000, 0.000, 0.000, 15:26:29.277
185, -4470.10, -4605.35, -3956.42, -4053.65, 0.000, 0.000, 0.000, 15:26:29.277
186, -4494.77, -4616.38, -3957.58, -4097.46, 0.000, 0.000, 0.000, 15:26:29.277
187, -4486.26, -4620.49, -3983.49, -4094.38, 0.000, 0.000, 0.000, 15:26:29.286
188, -4487.57, -4621.83, -3944.11, -4107.88, 0.000, 0.000, 0.000, 15:26:29.287
189, -4492.81, -4620.11, -3941.84, -4081.15, 0.000, 0.000, 0.000, 15:26:29.299
190, -4492.84, -4624.59, -3991.18, -4077.16, 0.000, 0.000, 0.000, 15:26:29.299
191, -4516.13, -4644.30, -3966.78, -4158.28, 0.000, 0.000, 0.000, 15:26:29.299
192, -4511.60, -4647.97, -3974.88, -4086.14, 0.000, 0.000, 0.000, 15:26:29.299
193, -4510.82, -4640.35, -3941.27, -4122.32, 0.000, 0.000, 0.000, 15:26:29.322
194, -4510.41, -4630.25, -4012.30, -4089.60, 0.000, 0.000, 0.000, 15:26:29.322
195, -4508.35, -4638.81, -3959.18, -4109.37, 0.000, 0.000, 0.000, 15:26:29.331
196, -4521.71, -4645.33, -3997.62, -4126.68, 0.000, 0.000, 0.000, 15:26:29.332
197, -4510.46, -4636.39, -3981.19, -4058.53, 0.000, 0.000, 0.000, 15:26:29.332
198, -4501.52, -4621.44, -3973.70, -4091.05, 0.000, 0.000, 0.000, 15:26:29.332
199, -4499.63, -4622.12, -3986.44, -4079.96, 0.000, 0.000, 0.000, 15:26:29.346
200, -4487.63, -4614.88, -3968.92, -4091.88, 0.000, 0.000, 0.000, 15:26:29.346
0, -4479.84, -4603.46, -3936.87, -4072.49, 0.000, 0.000, 0.000, 15:26:29.346
1, -4497.22, -4605.17, -3943.77, -4057.67, 0.000, 0.000, 0.000, 15:26:29.363
2, -4500.59, -4614.83, -3953.08, -4062.10, 0.000, 0.000, 0.000, 15:26:29.364
3, -4506.26, -4628.77, -4002.78, -4093.41, 0.000, 0.000, 0.000, 15:26:29.375
4, -4485.78, -4615.64, -3982.57, -4111.53, 0.000, 0.000, 0.000, 15:26:29.375
5, -4483.79, -4616.12, -3990.82, -4041.70, 0.000, 0.000, 0.000, 15:26:29.375
6, -4482.00, -4624.20, -3994.51, -4115.77, 0.000, 0.000, 0.000, 15:26:29.375
7, -4481.63, -4615.66, -3959.75, -4105.61, 0.000, 0.000, 0.000, 15:26:29.397
8, -4501.30, -4626.97, -4015.17, -4128.96, 0.000, 0.000, 0.000, 15:26:29.397
9, -4508.61, -4629.04, -3967.24, -4135.76, 0.000, 0.000, 0.000, 15:26:29.404
10, -4505.69, -4629.93, -3965.35, -4120.92, 0.000, 0.000, 0.000, 15:26:29.404
11, -4509.76, -4613.78, -3973.19, -4022.07, 0.000, 0.000, 0.000, 15:26:29.404
12, -4480.79, -4599.69, -3969.93, -4087.12, 0.000, 0.000, 0.000, 15:26:29.405
13, -4475.43, -4593.66, -3960.45, -4003.92, 0.000, 0.000, 0.000, 15:26:29.419
14, -4475.93, -4597.32, -3974.66, -4047.48, 0.000, 0.000, 0.000, 15:26:29.419
15, -4487.66, -4617.76, -3992.81, -4092.34, 0.000, 0.000, 0.000, 15:26:29.436
16, -4503.75, -4625.62, -3985.93, -4088.67, 0.000, 0.000, 0.000, 15:26:29.436
17, -4500.49, -4631.44, -3968.07, -4080.93, 0.000, 0.000, 0.000, 15:26:29.436
18, -4525.00, -4643.54, -3997.81, -4110.66, 0.000, 0.000, 0.000, 15:26:29.437
19, -4509.28, -4635.47, -3973.25, -4140.52, 0.000, 0.000, 0.000, 15:26:29.468
20, -4505.34, -4628.28, -3964.78, -4092.81, 0.000, 0.000, 0.000, 15:26:29.468
21, -4501.83, -4624.94, -4013.94, -4121.56, 0.000, 0.000, 0.000, 15:26:29.468
22, -4491.70, -4610.48, -3970.27, -4139.50, 0.000, 0.000, 0.000, 15:26:29.468
23, -4490.76, -4619.65, -3987.15, -4097.90, 0.000, 0.000, 0.000, 15:26:29.472
24, -4497.38, -4614.08, -3934.66, -4089.27, 0.000, 0.000, 0.000, 15:26:29.473
25, -4505.99, -4621.90, -3960.67, -4082.29, 0.000, 0.000, 0.000, 15:26:29.497
26, -4520.30, -4633.53, -3985.50, -4118.38, 0.000, 0.000, 0.000, 15:26:29.498
27, -4515.99, -4630.62, -3980.85, -4136.16, 0.000, 0.000, 0.000, 15:26:29.510
28, -4503.97, -4623.97, -3982.31, -4075.79, 0.000, 0.000, 0.000, 15:26:29.510
29, -4488.85, -4612.45, -3981.29, -4088.76, 0.000, 0.000, 0.000, 15:26:29.510
30, -4497.58, -4614.32, -3962.22, -4076.46, 0.000, 0.000, 0.000, 15:26:29.510
31, -4500.32, -4618.18, -3959.92, -4087.11, 0.000, 0.000, 0.000, 15:26:29.511
32, -4498.94, -4626.85, -3955.16, -4079.73, 0.000, 0.000, 0.000, 15:26:29.511
33, -4496.76, -4626.70, -3961.14, -4100.68, 0.000, 0.000, 0.000, 15:26:29.532
34, -4487.48, -4620.92, -3889.63, -4136.80, 0.000, 0.000, 0.000, 15:26:29.532
35, -4498.24, -4621.61, -3984.94, -4110.64, 0.000, 0.000, 0.000, 15:26:29.536
36, -4483.79, -4605.98, -3914.69, -4086.99, 0.000, 0.000, 0.000, 15:26:29.536
37, -4499.40, -4621.10, -3932.51, -4128.99, 0.000, 0.000, 0.000, 15:26:29.539
38, -4512.85, -4632.36, -4005.40, -4123.33, 0.000, 0.000, 0.000, 15:26:29.540
39, -4524.27, -4647.04, -4007.10, -4149.11, 0.000, 0.000, 0.000, 15:26:29.569
40, -4538.80, -4652.96, -3991.10, -4135.03, 0.000, 0.000, 0.000, 15:26:29.569
41, -4532.88, -4656.46, -4002.20, -4115.48, 0.000, 0.000, 0.000, 15:26:29.569
42, -4524.95, -4655.86, -3965.40, -4101.59, 0.000, 0.000, 0.000, 15:26:29.570
43, -4513.20, -4655.08, -3999.06, -4134.17, 0.000, 0.000, 0.000, 15:26:29.570
44, -4490.57, -4628.69, -3939.92, -4086.88, 0.000, 0.000, 0.000, 15:26:29.570
45, -4474.68, -4602.84, -3917.89, -4105.37, 0.000, 0.000, 0.000, 15:26:29.604
46, -4480.31, -4603.04, -3939.47, -4053.00, 0.000, 0.000, 0.000, 15:26:29.605
47, -4483.50, -4603.93, -3968.70, -4059.57, 0.000, 0.000, 0.000, 15:26:29.605
48, -4488.85, -4598.97, -3962.51, -4069.68, 0.000, 0.000, 0.000, 15:26:29.605
49, -4476.75, -4596.89, -3954.69, -4067.46, 0.000, 0.000, 0.000, 15:26:29.605
50, -4488.74, -4609.55, -4015.47, -4080.42, 0.000, 0.000, 0.000, 15:26:29.605
51, -4502.63, -4612.56, -3967.73, -4108.68, 0.000, 0.000, 0.000, 15:26:29.614
52, -4492.14, -4612.09, -3945.42, -4101.99, 0.000, 0.000, 0.000, 15:26:29.614
53, -4495.05, -4622.71, -3945.86, -4082.98, 0.000, 0.000, 0.000, 15:26:29.619
54, -4524.25, -4642.56, -4006.56, -4133.39, 0.000, 0.000, 0.000, 15:26:29.619
55, -4509.95, -4630.39, -4037.21, -4136.32, 0.000, 0.000, 0.000, 15:26:29.630
56, -4498.18, -4621.82, -3944.94, -4101.47, 0.000, 0.000, 0.000, 15:26:29.630
57, -4489.97, -4609.67, -4010.59, -4112.00, 0.000, 0.000, 0.000, 15:26:29.647
58, -4497.59, -4621.06, -3943.55, -4093.37, 0.000, 0.000, 0.000, 15:26:29.648
59, -4484.20, -4621.26, -3917.01, -4140.82, 0.000, 0.000, 0.000, 15:26:29.648
60, -4482.57, -4618.75, -3971.18, -4094.26, 0.000, 0.000, 0.000, 15:26:29.648
61, -4477.62, -4603.39, -3950.08, -4094.30, 0.000, 0.000, 0.000, 15:26:29.659
62, -4490.76, -4613.46, -3987.05, -4104.10, 0.000, 0.000, 0.000, 15:26:29.659
63, -4487.61, -4602.47, -3990.36, -4073.69, 0.000, 0.000, 0.000, 15:26:29.681
64, -4484.17, -4598.41, -3991.55, -4077.72, 0.000, 0.000, 0.000, 15:26:29.681
65, -4481.63, -4595.68, -3925.90, -4065.71, 0.000, 0.000, 0.000, 15:26:29.681
66, -4468.09, -4598.58, -3960.41, -4093.73, 0.000, 0.000, 0.000, 15:26:29.681
67, -4491.00, -4628.20, -3966.04, -4093.89, 0.000, 0.000, 0.000, 15:26:29.689
68, -4492.05, -4632.77, -3981.89, -4089.70, 0.000, 0.000, 0.000, 15:26:29.690
69, -4478.33, -4626.92, -3974.92, -4095.87, 0.000, 0.000, 0.000, 15:26:29.715
70, -4498.24, -4632.46, -3972.41, -4136.62, 0.000, 0.000, 0.000, 15:26:29.715
71, -4498.99, -4620.99, -3995.61, -4081.27, 0.000, 0.000, 0.000, 15:26:29.716
72, -4504.70, -4613.21, -3994.51, -4096.18, 0.000, 0.000, 0.000, 15:26:29.716
73, -4491.71, -4604.42, -4020.08, -4076.87, 0.000, 0.000, 0.000, 15:26:29.719
74, -4495.33, -4616.62, -3977.96, -4106.15, 0.000, 0.000, 0.000, 15:26:29.719
75, -4500.63, -4616.54, -3968.17, -4101.61, 0.000, 0.000, 0.000, 15:26:29.738
76, -4488.39, -4610.08, -3955.55, -4113.06, 0.000, 0.000, 0.000, 15:26:29.739
77, -4489.55, -4615.16, -4002.24, -4107.75, 0.000, 0.000, 0.000, 15:26:29.739
78, -4476.89, -4608.40, -3989.23, -4083.61, 0.000, 0.000, 0.000, 15:26:29.739
79, -4497.47, -4614.33, -3963.54, -4121.37, 0.000, 0.000, 0.000, 15:26:29.750
80, -4489.82, -4621.50, -3963.17, -4066.45, 0.000, 0.000, 0.000, 15:26:29.750
81, -4505.07, -4617.55, -3920.49, -4072.53, 0.000, 0.000, 0.000, 15:26:29.767
82, -4491.31, -4629.08, -3952.78, -4107.67, 0.000, 0.000, 0.000, 15:26:29.767
83, -4497.95, -4635.54, -3984.03, -4123.38, 0.000, 0.000, 0.000, 15:26:29.767
84, -4492.30, -4633.80, -3943.58, -4114.33, 0.000, 0.000, 0.000, 15:26:29.767
85, -4474.36, -4609.52, -4012.68, -4083.08, 0.000, 0.000, 0.000, 15:26:29.783
86, -4488.08, -4617.63, -3938.56, -4084.94, 0.000, 0.000, 0.000, 15:26:29.783
87, -4492.82, -4623.62, -3921.11, -4102.26, 0.000, 0.000, 0.000, 15:26:29.795
88, -4478.78, -4602.81, -3982.58, -4097.75, 0.000, 0.000, 0.000, 15:26:29.795
89, -4499.34, -4611.05, -3967.64, -4101.60, 0.000, 0.000, 0.000, 15:26:29.795
90, -4501.84, -4616.01, -3995.42, -4096.75, 0.000, 0.000, 0.000, 15:26:29.795
91, -4485.82, -4610.80, -3996.43, -4100.74, 0.000, 0.000, 0.000, 15:26:29.838
92, -4497.51, -4613.51, -3967.00, -4085.93, 0.000, 0.000, 0.000, 15:26:29.838
93, -4496.82, -4613.91, -3962.99, -4095.52, 0.000, 0.000, 0.000, 15:26:29.838
94, -4507.59, -4619.83, -3983.38, -4090.72, 0.000, 0.000, 0.000, 15:26:29.839
95, -4505.86, -4620.06, -3985.84, -4099.39, 0.000, 0.000, 0.000, 15:26:29.839
96, -4494.69, -4607.18, -3951.39, -4091.03, 0.000, 0.000, 0.000, 15:26:29.839
97, -4485.29, -4614.30, -3965.84, -4075.86, 0.000, 0.000, 0.000, 15:26:29.840
98, -4478.55, -4607.60, -3958.04, -4080.10, 0.000, 0.000, 0.000, 15:26:29.840
99, -4484.60, -4615.35, -3941.95, -4125.15, 0.000, 0.000, 0.000, 15:26:29.854
100, -4464.67, -4592.96, -3963.02, -4091.47, 0.000, 0.000, 0.000, 15:26:29.854
101, -4472.13, -4600.37, -3983.23, -4066.72, 0.000, 0.000, 0.000, 15:26:29.855
102, -4470.95, -4606.26, -3958.91, -4106.46, 0.000, 0.000, 0.000, 15:26:29.855
103, -4481.48, -4607.78, -3982.01, -4114.68, 0.000, 0.000, 0.000, 15:26:29.883
104, -4486.26, -4613.78, -3967.73, -4106.16, 0.000, 0.000, 0.000, 15:26:29.883
105, -4484.35, -4618.90, -3967.17, -4079.89, 0.000, 0.000, 0.000, 15:26:29.884
106, -4495.83, -4625.53, -3979.58, -4098.26, 0.000, 0.000, 0.000, 15:26:29.884
107, -4505.86, -4629.46, -3971.31, -4120.40, 0.000, 0.000, 0.000, 15:26:29.884
108, -4511.15, -4631.82, -3995.59, -4097.10, 0.000, 0.000, 0.000, 15:26:29.884
109, -4514.66, -4639.88, -3975.18, -4150.69, 0.000, 0.000, 0.000, 15:26:29.902
110, -4517.94, -4644.26, -4017.27, -4115.25, 0.000, 0.000, 0.000, 15:26:29.902
111, -4512.18, -4645.78, -4009.83, -4126.42, 0.000, 0.000, 0.000, 15:26:29.916
112, -4515.06, -4645.50, -3980.07, -4084.71, 0.000, 0.000, 0.000, 15:26:29.916
113, -4491.24, -4632.73, -3960.80, -4062.53, 0.000, 0.000, 0.000, 15:26:29.929
114, -4483.74, -4611.66, -3970.79, -4085.92, 0.000, 0.000, 0.000, 15:26:29.930
115, -4468.25, -4591.26, -3939.12, -4098.42, 0.000, 0.000, 0.000, 15:26:29.936
116, -4463.21, -4582.59, -3957.00, -4101.43, 0.000, 0.000, 0.000, 15:26:29.936
117, -4450.97, -4575.84, -3958.70, -4055.05, 0.000, 0.000, 0.000, 15:26:29.949
118, -4463.60, -4593.15, -3966.22, -4123.34, 0.000, 0.000, 0.000, 15:26:29.949
119, -4482.52, -4606.51, -4008.28, -4097.02, 0.000, 0.000, 0.000, 15:26:29.949
120, -4499.23, -4616.66, -3965.17, -4092.65, 0.000, 0.000, 0.000, 15:26:29.949
121, -4506.64, -4627.17, -3985.82, -4104.89, 0.000, 0.000, 0.000, 15:26:29.959
122, -4520.83, -4638.47, -3951.08, -4116.06, 0.000, 0.000, 0.000, 15:26:29.960
123, -4512.87, -4634.78, -4010.74, -4119.95, 0.000, 0.000, 0.000, 15:26:29.974
124, -4506.92, -4615.09, -3955.91, -4097.52, 0.000, 0.000, 0.000, 15:26:29.974
125, -4497.79, -4610.84, -3967.59, -4093.17, 0.000, 0.000, 0.000, 15:26:29.975
126, -4507.85, -4622.03, -3971.98, -4118.17, 0.000, 0.000, 0.000, 15:26:29.975
127, -4511.41, -4624.48, -3994.94, -4111.40, 0.000, 0.000, 0.000, 15:26:29.989
128, -4492.94, -4620.01, -3966.04, -4075.46, 0.000, 0.000, 0.000, 15:26:29.989
129, -4490.23, -4618.95, -3978.66, -4077.38, 0.000, 0.000, 0.000, 15:26:30.007
130, -4498.79, -4623.98, -3937.56, -4071.11, 0.000, 0.000, 0.000, 15:26:30.007
131, -4494.94, -4608.50, -3946.78, -4110.17, 0.000, 0.000, 0.000, 15:26:30.007
132, -4481.09, -4592.38, -3983.43, -4082.57, 0.000, 0.000, 0.000, 15:26:30.008
133, -4489.56, -4606.36, -4026.44, -4092.79, 0.000, 0.000, 0.000, 15:26:30.021
134, -4494.76, -4624.69, -3976.14, -4096.12, 0.000, 0.000, 0.000, 15:26:30.021
135, -4515.53, -4626.23, -3979.40, -4142.44, 0.000, 0.000, 0.000, 15:26:30.036
136, -4502.14, -4616.62, -3967.92, -4102.60, 0.000, 0.000, 0.000, 15:26:30.037
137, -4484.25, -4601.53, -3962.99, -4097.82, 0.000, 0.000, 0.000, 15:26:30.037
138, -4471.63, -4590.31, -4004.21, -4061.35, 0.000, 0.000, 0.000, 15:26:30.037
139, -4477.68, -4586.71, -3957.00, -4041.78, 0.000, 0.000, 0.000, 15:26:30.050
140, -4486.51, -4589.35, -3963.69, -4060.84, 0.000, 0.000, 0.000, 15:26:30.050
141, -4476.01, -4586.10, -3948.61, -4060.68, 0.000, 0.000, 0.000, 15:26:30.064
142, -4488.78, -4616.27, -3956.96, -4108.38, 0.000, 0.000, 0.000, 15:26:30.064
143, -4492.74, -4626.13, -3964.76, -4119.44, 0.000, 0.000, 0.000, 15:26:30.083
144, -4480.90, -4629.53, -3944.28, -4105.77, 0.000, 0.000, 0.000, 15:26:30.084
145, -4500.57, -4627.85, -3986.47, -4095.32, 0.000, 0.000, 0.000, 15:26:30.084
146, -4503.23, -4639.50, -4023.68, -4086.77, 0.000, 0.000, 0.000, 15:26:30.084
147, -4511.18, -4634.57, -3991.93, -4108.43, 0.000, 0.000, 0.000, 15:26:30.119
148, -4506.72, -4619.96, -3980.43, -4109.21, 0.000, 0.000, 0.000, 15:26:30.119
149, -4497.82, -4613.04, -3990.85, -4094.89, 0.000, 0.000, 0.000, 15:26:30.119
150, -4495.85, -4626.89, -3969.96, -4145.67, 0.000, 0.000, 0.000, 15:26:30.119
151, -4503.89, -4615.21, -3959.88, -4135.25, 0.000, 0.000, 0.000, 15:26:30.119
152, -4493.10, -4608.85, -4040.97, -4100.34, 0.000, 0.000, 0.000, 15:26:30.120
153, -4495.03, -4616.67, -3986.30, -4060.45, 0.000, 0.000, 0.000, 15:26:30.124
154, -4505.80, -4624.83, -3991.21, -4110.25, 0.000, 0.000, 0.000, 15:26:30.124
155, -4501.81, -4619.42, -4018.08, -4109.86, 0.000, 0.000, 0.000, 15:26:30.124
156, -4473.45, -4597.06, -3914.23, -4064.46, 0.000, 0.000, 0.000, 15:26:30.125
157, -4486.96, -4603.80, -3964.15, -4051.44, 0.000, 0.000, 0.000, 15:26:30.156
158, -4478.10, -4610.01, -3895.64, -4101.21, 0.000, 0.000, 0.000, 15:26:30.156
159, -4484.51, -4616.12, -3929.91, -4074.56, 0.000, 0.000, 0.000, 15:26:30.157
160, -4488.03, -4618.22, -3958.70, -4087.90, 0.000, 0.000, 0.000, 15:26:30.157
161, -4483.07, -4621.17, -3971.99, -4090.13, 0.000, 0.000, 0.000, 15:26:30.157
162, -4489.98, -4619.43, -3965.14, -4089.43, 0.000, 0.000, 0.000, 15:26:30.157
163, -4489.71, -4618.42, -3958.46, -4135.31, 0.000, 0.000, 0.000, 15:26:30.177
164, -4489.52, -4604.71, -3953.81, -4096.00, 0.000, 0.000, 0.000, 15:26:30.177
165, -4500.30, -4614.30, -4020.51, -4070.26, 0.000, 0.000, 0.000, 15:26:30.184
166, -4499.88, -4618.81, -3950.65, -4132.17, 0.000, 0.000, 0.000, 15:26:30.184
167, -4502.18, -4627.49, -3998.19, -4112.82, 0.000, 0.000, 0.000, 15:26:30.184
168, -4497.38, -4609.34, -3990.28, -4104.93, 0.000, 0.000, 0.000, 15:26:30.185
169, -4486.48, -4596.37, -3951.74, -4117.28, 0.000, 0.000, 0.000, 15:26:30.199
170, -4497.46, -4604.41, -4025.34, -4045.76, 0.000, 0.000, 0.000, 15:26:30.199
171, -4488.13, -4599.71, -4011.41, -4068.01, 0.000, 0.000, 0.000, 15:26:30.214
172, -4497.09, -4597.05, -3999.07, -4073.05, 0.000, 0.000, 0.000, 15:26:30.214
173, -4486.50, -4599.70, -3994.66, -4100.66, 0.000, 0.000, 0.000, 15:26:30.222
174, -4496.90, -4622.49, -3958.06, -4089.86, 0.000, 0.000, 0.000, 15:26:30.222
175, -4505.32, -4635.42, -3929.99, -4101.29, 0.000, 0.000, 0.000, 15:26:30.229
176, -4498.78, -4631.04, -3978.78, -4129.56, 0.000, 0.000, 0.000, 15:26:30.229
177, -4496.84, -4643.72, -3985.01, -4116.41, 0.000, 0.000, 0.000, 15:26:30.244
178, -4486.44, -4629.51, -3959.98, -4136.17, 0.000, 0.000, 0.000, 15:26:30.244
179, -4478.22, -4608.35, -3931.89, -4046.61, 0.000, 0.000, 0.000, 15:26:30.245
180, -4465.46, -4589.40, -3944.00, -4068.93, 0.000, 0.000, 0.000, 15:26:30.245
181, -4452.07, -4577.12, -3951.27, -4114.62, 0.000, 0.000, 0.000, 15:26:30.275
182, -4460.63, -4590.22, -3927.52, -4111.38, 0.000, 0.000, 0.000, 15:26:30.275
183, -4472.16, -4595.39, -3966.91, -4080.07, 0.000, 0.000, 0.000, 15:26:30.275
184, -4482.75, -4595.20, -3975.17, -4041.45, 0.000, 0.000, 0.000, 15:26:30.275
185, -4480.63, -4607.41, -3972.12, -4092.25, 0.000, 0.000, 0.000, 15:26:30.275
186, -4491.80, -4611.21, -3977.76, -4082.02, 0.000, 0.000, 0.000, 15:26:30.275
187, -4505.17, -4630.61, -3973.48, -4146.60, 0.000, 0.000, 0.000, 15:26:30.289
188, -4486.98, -4612.81, -3968.61, -4069.93, 0.000, 0.000, 0.000, 15:26:30.289
189, -4492.52, -4617.69, -3968.53, -4136.91, 0.000, 0.000, 0.000, 15:26:30.339
190, -4498.76, -4627.13, -3985.59, -4123.20, 0.000, 0.000, 0.000, 15:26:30.339
191, -4495.55, -4635.97, -3994.18, -4102.98, 0.000, 0.000, 0.000, 15:26:30.339
192, -4504.78, -4632.60, -3983.33, -4138.72, 0.000, 0.000, 0.000, 15:26:30.339
193, -4507.48, -4634.38, -4015.42, -4094.00, 0.000, 0.000, 0.000, 15:26:30.339
194, -4524.52, -4642.44, -3971.21, -4101.34, 0.000, 0.000, 0.000, 15:26:30.339
195, -4515.74, -4638.97, -3999.14, -4105.40, 0.000, 0.000, 0.000, 15:26:30.340
196, -4511.84, -4641.51, -3963.67, -4103.65, 0.000, 0.000, 0.000, 15:26:30.340
197, -4508.11, -4623.67, -3955.51, -4122.82, 0.000, 0.000, 0.000, 15:26:30.340
198, -4484.91, -4619.30, -3949.66, -4078.81, 0.000, 0.000, 0.000, 15:26:30.340
199, -4490.66, -4622.02, -3976.23, -4085.92, 0.000, 0.000, 0.000, 15:26:30.349
200, -4478.16, -4606.46, -3981.08, -4079.04, 0.000, 0.000, 0.000, 15:26:30.349
0, -4492.25, -4605.35, -3965.23, -4100.13, 0.000, 0.000, 0.000, 15:26:30.349
1, -4494.02, -4605.12, -3948.34, -4113.08, 0.000, 0.000, 0.000, 15:26:30.365
2, -4509.66, -4621.91, -3984.94, -4080.75, 0.000, 0.000, 0.000, 15:26:30.365
3, -4489.17, -4612.60, -3968.36, -4091.21, 0.000, 0.000, 0.000, 15:26:30.382
4, -4484.46, -4609.06, -3949.87, -4108.67, 0.000, 0.000, 0.000, 15:26:30.383
5, -4494.10, -4618.68, -3911.76, -4093.78, 0.000, 0.000, 0.000, 15:26:30.383
6, -4489.46, -4626.18, -3953.46, -4088.10, 0.000, 0.000, 0.000, 15:26:30.383
7, -4481.66, -4622.93, -3953.58, -4059.39, 0.000, 0.000, 0.000, 15:26:30.395
8, -4477.19, -4621.36, -3946.53, -4094.09, 0.000, 0.000, 0.000, 15:26:30.395
9, -4488.43, -4621.44, -4005.98, -4094.68, 0.000, 0.000, 0.000, 15:26:30.411
10, -4504.91, -4628.84, -3931.01, -4141.74, 0.000, 0.000, 0.000, 15:26:30.411
11, -4499.06, -4626.61, -4001.86, -4109.08, 0.000, 0.000, 0.000, 15:26:30.411
12, -4498.84, -4619.31, -4016.65, -4102.02, 0.000, 0.000, 0.000, 15:26:30.411
13, -4508.42, -4632.50, -3991.31, -4130.40, 0.000, 0.000, 0.000, 15:26:30.424
14, -4534.86, -4640.70, -4035.87, -4118.30, 0.000, 0.000, 0.000, 15:26:30.424
15, -4519.69, -4638.37, -3997.65, -4138.38, 0.000, 0.000, 0.000, 15:26:30.439
16, -4520.18, -4642.21, -3982.39, -4139.05, 0.000, 0.000, 0.000, 15:26:30.439
17, -4526.80, -4644.03, -3987.71, -4106.34, 0.000, 0.000, 0.000, 15:26:30.440
18, -4515.79, -4640.51, -3913.46, -4139.95, 0.000, 0.000, 0.000, 15:26:30.440
19, -4496.77, -4621.48, -3940.21, -4108.37, 0.000, 0.000, 0.000, 15:26:30.454
20, -4475.67, -4601.36, -3921.46, -4069.51, 0.000, 0.000, 0.000, 15:26:30.454
21, -4483.23, -4607.74, -3984.69, -4094.16, 0.000, 0.000, 0.000, 15:26:30.470
22, -4498.99, -4615.37, -3992.77, -4091.75, 0.000, 0.000, 0.000, 15:26:30.470
23, -4479.21, -4605.15, -3966.17, -4108.36, 0.000, 0.000, 0.000, 15:26:30.471
24, -4488.52, -4595.38, -3977.07, -4106.26, 0.000, 0.000, 0.000, 15:26:30.471
25, -4477.49, -4597.25, -3959.29, -4119.40, 0.000, 0.000, 0.000, 15:26:30.484
26, -4486.14, -4586.01, -3955.35, -4097.21, 0.000, 0.000, 0.000, 15:26:30.485
27, -4466.73, -4572.16, -3976.24, -4077.74, 0.000, 0.000, 0.000, 15:26:30.499
28, -4472.98, -4566.50, -3946.34, -4068.54, 0.000, 0.000, 0.000, 15:26:30.499
29, -4490.22, -4584.83, -3950.45, -4070.95, 0.000, 0.000, 0.000, 15:26:30.515
30, -4499.71, -4584.45, -4017.89, -4112.75, 0.000, 0.000, 0.000, 15:26:30.515
31, -4495.32, -4582.27, -3961.05, -4065.31, 0.000, 0.000, 0.000, 15:26:30.515
32, -4492.95, -4582.78, -3954.60, -4120.04, 0.000, 0.000, 0.000, 15:26:30.515
33, -4515.36, -4602.57, -3966.25, -4113.88, 0.000, 0.000, 0.000, 15:26:30.529
34, -4508.89, -4600.03, -3980.38, -4142.49, 0.000, 0.000, 0.000, 15:26:30.530
35, -4476.69, -4585.28, -3967.57, -4067.75, 0.000, 0.000, 0.000, 15:26:30.530
36, -4473.17, -4570.87, -3959.85, -4092.04, 0.000, 0.000, 0.000, 15:26:30.530
37, -4476.78, -4594.13, -3947.30, -4098.92, 0.000, 0.000, 0.000, 15:26:30.545
38, -4483.63, -4604.06, -3998.48, -4117.16, 0.000, 0.000, 0.000, 15:26:30.545
39, -4477.18, -4593.58, -3983.91, -4078.22, 0.000, 0.000, 0.000, 15:26:30.559
40, -4483.47, -4593.25, -3960.22, -4091.95, 0.000, 0.000, 0.000, 15:26:30.559
41, -4488.90, -4603.20, -3973.63, -4103.11, 0.000, 0.000, 0.000, 15:26:30.566
42, -4490.08, -4599.59, -3950.58, -4093.31, 0.000, 0.000, 0.000, 15:26:30.567
43, -4478.79, -4591.02, -3916.04, -4067.53, 0.000, 0.000, 0.000, 15:26:30.591
44, -4479.13, -4596.30, -3963.69, -4066.66, 0.000, 0.000, 0.000, 15:26:30.591
45, -4493.87, -4606.94, -3962.66, -4086.12, 0.000, 0.000, 0.000, 15:26:30.591
46, -4504.61, -4611.70, -3935.64, -4088.90, 0.000, 0.000, 0.000, 15:26:30.592
47, -4498.12, -4606.67, -3984.02, -4071.34, 0.000, 0.000, 0.000, 15:26:30.592
48, -4511.06, -4613.58, -4036.14, -4107.83, 0.000, 0.000, 0.000, 15:26:30.592
49, -4501.55, -4624.42, -3984.96, -4107.25, 0.000, 0.000, 0.000, 15:26:30.619
50, -4500.90, -4612.40, -3959.64, -4111.87, 0.000, 0.000, 0.000, 15:26:30.619
51, -4490.97, -4607.77, -3974.58, -4101.75, 0.000, 0.000, 0.000, 15:26:30.619
52, -4485.28, -4604.08, -3964.49, -4099.64, 0.000, 0.000, 0.000, 15:26:30.620
53, -4483.78, -4604.56, -4014.24, -4081.69, 0.000, 0.000, 0.000, 15:26:30.620
54, -4484.00, -4610.62, -3959.27, -4090.51, 0.000, 0.000, 0.000, 15:26:30.620
55, -4484.48, -4601.21, -3972.65, -4078.81, 0.000, 0.000, 0.000, 15:26:30.634
56, -4473.67, -4595.21, -3965.84, -4113.02, 0.000, 0.000, 0.000, 15:26:30.635
57, -4478.35, -4605.94, -3947.45, -4102.29, 0.000, 0.000, 0.000, 15:26:30.649
58, -4478.03, -4607.76, -3955.51, -4112.22, 0.000, 0.000, 0.000, 15:26:30.650
59, -4486.71, -4604.85, -3969.64, -4086.75, 0.000, 0.000, 0.000, 15:26:30.650
60, -4490.22, -4611.15, -3977.51, -4143.37, 0.000, 0.000, 0.000, 15:26:30.650
61, -4498.97, -4615.21, -3971.75, -4096.78, 0.000, 0.000, 0.000, 15:26:30.664
62, -4513.74, -4630.88, -3957.12, -4098.23, 0.000, 0.000, 0.000, 15:26:30.665
63, -4514.18, -4628.20, -3973.60, -4122.26, 0.000, 0.000, 0.000, 15:26:30.696
64, -4521.54, -4637.20, -4025.86, -4089.43, 0.000, 0.000, 0.000, 15:26:30.696
65, -4525.20, -4644.44, -4027.65, -4103.89, 0.000, 0.000, 0.000, 15:26:30.700
66, -4521.06, -4638.45, -4039.53, -4132.28, 0.000, 0.000, 0.000, 15:26:30.700
67, -4506.90, -4620.01, -3983.26, -4097.02, 0.000, 0.000, 0.000, 15:26:30.700
68, -4492.41, -4600.41, -3968.19, -4110.12, 0.000, 0.000, 0.000, 15:26:30.700
69, -4489.11, -4604.79, -3984.76, -4102.07, 0.000, 0.000, 0.000, 15:26:30.716
70, -4477.13, -4605.80, -3971.32, -4063.32, 0.000, 0.000, 0.000, 15:26:30.717
71, -4484.09, -4601.97, -3911.80, -4091.91, 0.000, 0.000, 0.000, 15:26:30.717
72, -4486.13, -4604.02, -3955.96, -4084.85, 0.000, 0.000, 0.000, 15:26:30.717
73, -4490.96, -4603.86, -3916.79, -4090.75, 0.000, 0.000, 0.000, 15:26:30.725
74, -4510.98, -4622.25, -3997.17, -4114.59, 0.000, 0.000, 0.000, 15:26:30.725
75, -4515.60, -4625.29, -3959.46, -4117.74, 0.000, 0.000, 0.000, 15:26:30.739
76, -4511.93, -4626.45, -3957.29, -4118.12, 0.000, 0.000, 0.000, 15:26:30.739
77, -4514.09, -4639.69, -4002.85, -4127.24, 0.000, 0.000, 0.000, 15:26:30.739
78, -4515.98, -4641.84, -3980.87, -4125.73, 0.000, 0.000, 0.000, 15:26:30.740
79, -4520.88, -4629.06, -3969.86, -4140.28, 0.000, 0.000, 0.000, 15:26:30.754
80, -4503.29, -4619.41, -3976.92, -4089.58, 0.000, 0.000, 0.000, 15:26:30.754
81, -4506.87, -4632.99, -3945.78, -4096.29, 0.000, 0.000, 0.000, 15:26:30.769
82, -4503.93, -4625.07, -3978.96, -4100.79, 0.000, 0.000, 0.000, 15:26:30.769
83, -4498.94, -4621.70, -3960.40, -4099.16, 0.000, 0.000, 0.000, 15:26:30.770
84, -4495.80, -4622.72, -3923.81, -4067.27, 0.000, 0.000, 0.000, 15:26:30.770
85, -4512.60, -4627.34, -3990.08, -4093.63, 0.000, 0.000, 0.000, 15:26:30.784
86, -4511.13, -4623.57, -3945.47, -4109.22, 0.000, 0.000, 0.000, 15:26:30.785
87, -4504.51, -4622.54, -3991.63, -4068.48, 0.000, 0.000, 0.000, 15:26:30.939
88, -4502.57, -4622.97, -3990.42, -4091.57, 0.000, 0.000, 0.000, 15:26:30.939
89, -4500.47, -4622.58, -4000.60, -4108.31, 0.000, 0.000, 0.000, 15:26:30.939
90, -4492.14, -4623.40, -3984.27, -4137.58, 0.000, 0.000, 0.000, 15:26:30.939
91, -4501.28, -4618.17, -3932.24, -4127.08, 0.000, 0.000, 0.000, 15:26:30.940
92, -4504.34, -4615.32, -3994.35, -4138.07, 0.000, 0.000, 0.000, 15:26:30.940
93, -4524.45, -4630.44, -4028.54, -4137.74, 0.000, 0.000, 0.000, 15:26:30.940
94, -4534.15, -4640.72, -3974.14, -4129.17, 0.000, 0.000, 0.000, 15:26:30.940
95, -4510.91, -4610.95, -3973.56, -4099.04, 0.000, 0.000, 0.000, 15:26:30.940
96, -4497.13, -4607.95, -3990.06, -4095.91, 0.000, 0.000, 0.000, 15:26:30.940
97, -4478.38, -4603.39, -3964.62, -4084.06, 0.000, 0.000, 0.000, 15:26:30.940
98, -4481.83, -4609.29, -3943.67, -4093.66, 0.000, 0.000, 0.000, 15:26:30.941
99, -4459.38, -4596.18, -3945.85, -4112.22, 0.000, 0.000, 0.000, 15:26:30.941
100, -4460.35, -4588.49, -3945.10, -4055.16, 0.000, 0.000, 0.000, 15:26:30.941
101, -4464.24, -4597.63, -3930.49, -4069.52, 0.000, 0.000, 0.000, 15:26:30.941
102, -4485.12, -4604.41, -3991.17, -4058.71, 0.000, 0.000, 0.000, 15:26:30.941
103, -4491.26, -4597.60, -3999.57, -4073.25, 0.000, 0.000, 0.000, 15:26:30.941
104, -4476.76, -4590.44, -3954.68, -4074.54, 0.000, 0.000, 0.000, 15:26:30.941
105, -4486.27, -4609.38, -3946.02, -4102.57, 0.000, 0.000, 0.000, 15:26:30.944
106, -4493.91, -4608.73, -3949.32, -4078.07, 0.000, 0.000, 0.000, 15:26:30.944
107, -4494.64, -4618.02, -4003.85, -4098.09, 0.000, 0.000, 0.000, 15:26:30.944
108, -4510.95, -4622.56, -3960.86, -4112.97, 0.000, 0.000, 0.000, 15:26:30.944
109, -4510.94, -4641.67, -4025.29, -4174.74, 0.000, 0.000, 0.000, 15:26:30.944
110, -4512.14, -4640.87, -3991.51, -4168.33, 0.000, 0.000, 0.000, 15:26:30.944
111, -4508.46, -4627.43, -4001.68, -4147.34, 0.000, 0.000, 0.000, 15:26:30.944
112, -4500.31, -4625.01, -3962.67, -4103.16, 0.000, 0.000, 0.000, 15:26:30.945
113, -4494.48, -4628.47, -3964.80, -4101.77, 0.000, 0.000, 0.000, 15:26:30.945
114, -4493.99, -4616.09, -3960.31, -4142.08, 0.000, 0.000, 0.000, 15:26:30.945
115, -4488.49, -4614.98, -3993.00, -4080.25, 0.000, 0.000, 0.000, 15:26:30.945
116, -4493.96, -4630.39, -3973.63, -4087.49, 0.000, 0.000, 0.000, 15:26:30.945
117, -4503.85, -4625.22, -3964.22, -4095.28, 0.000, 0.000, 0.000, 15:26:30.964
118, -4506.24, -4626.15, -3975.78, -4070.27, 0.000, 0.000, 0.000, 15:26:30.964
119, -4492.32, -4613.40, -3900.12, -4102.60, 0.000, 0.000, 0.000, 15:26:30.964
120, -4497.96, -4611.35, -3953.96, -4071.03, 0.000, 0.000, 0.000, 15:26:30.964
121, -4492.05, -4600.03, -3998.70, -4091.34, 0.000, 0.000, 0.000, 15:26:30.964
122, -4495.47, -4598.63, -4004.45, -4089.67, 0.000, 0.000, 0.000, 15:26:30.964
123, -4501.45, -4614.83, -3986.20, -4072.28, 0.000, 0.000, 0.000, 15:26:30.984
124, -4515.63, -4620.66, -3963.67, -4083.68, 0.000, 0.000, 0.000, 15:26:30.984
125, -4529.47, -4635.45, -4024.88, -4120.25, 0.000, 0.000, 0.000, 15:26:30.984
126, -4525.04, -4645.76, -4011.83, -4129.34, 0.000, 0.000, 0.000, 15:26:30.985
127, -4522.77, -4644.67, -4002.38, -4129.09, 0.000, 0.000, 0.000, 15:26:30.994
128, -4509.98, -4645.90, -4003.85, -4125.59, 0.000, 0.000, 0.000, 15:26:30.994
129, -4508.71, -4637.77, -3974.18, -4163.22, 0.000, 0.000, 0.000, 15:26:31.009
130, -4508.86, -4652.65, -4000.94, -4121.09, 0.000, 0.000, 0.000, 15:26:31.009
131, -4496.86, -4642.02, -3975.88, -4150.61, 0.000, 0.000, 0.000, 15:26:31.009
132, -4502.37, -4632.21, -4016.55, -4116.80, 0.000, 0.000, 0.000, 15:26:31.009
133, -4502.10, -4639.81, -4023.14, -4102.15, 0.000, 0.000, 0.000, 15:26:31.024
134, -4498.35, -4630.29, -3980.54, -4103.77, 0.000, 0.000, 0.000, 15:26:31.024
135, -4485.04, -4615.03, -3939.21, -4110.59, 0.000, 0.000, 0.000, 15:26:31.039
136, -4486.96, -4606.09, -3923.45, -4031.41, 0.000, 0.000, 0.000, 15:26:31.040
137, -4487.03, -4605.56, -3978.75, -4059.60, 0.000, 0.000, 0.000, 15:26:31.040
138, -4498.05, -4605.66, -3946.66, -4081.72, 0.000, 0.000, 0.000, 15:26:31.040
139, -4492.65, -4603.78, -3969.54, -4110.02, 0.000, 0.000, 0.000, 15:26:31.054
140, -4495.59, -4600.94, -3967.77, -4118.62, 0.000, 0.000, 0.000, 15:26:31.054
141, -4486.89, -4605.92, -4000.38, -4065.03, 0.000, 0.000, 0.000, 15:26:31.069
142, -4492.08, -4610.66, -3978.73, -4067.83, 0.000, 0.000, 0.000, 15:26:31.069
143, -4494.53, -4604.48, -3961.16, -4116.69, 0.000, 0.000, 0.000, 15:26:31.069
144, -4483.54, -4600.38, -3953.48, -4074.57, 0.000, 0.000, 0.000, 15:26:31.069
145, -4506.35, -4619.42, -3992.96, -4092.22, 0.000, 0.000, 0.000, 15:26:31.085
146, -4503.69, -4631.95, -3988.70, -4141.85, 0.000, 0.000, 0.000, 15:26:31.085
147, -4513.12, -4629.63, -3940.34, -4121.44, 0.000, 0.000, 0.000, 15:26:31.099
148, -4516.85, -4633.44, -3975.10, -4115.69, 0.000, 0.000, 0.000, 15:26:31.099
149, -4526.46, -4654.84, -3989.30, -4082.39, 0.000, 0.000, 0.000, 15:26:31.114
150, -4517.83, -4642.96, -3954.14, -4126.59, 0.000, 0.000, 0.000, 15:26:31.114
151, -4505.13, -4617.13, -3960.64, -4108.73, 0.000, 0.000, 0.000, 15:26:31.114
152, -4494.08, -4615.62, -3954.20, -4075.69, 0.000, 0.000, 0.000, 15:26:31.114
153, -4493.85, -4618.48, -3985.27, -4103.28, 0.000, 0.000, 0.000, 15:26:31.129
154, -4498.00, -4609.63, -3987.72, -4086.54, 0.000, 0.000, 0.000, 15:26:31.131
155, -4498.22, -4614.97, -3969.06, -4123.18, 0.000, 0.000, 0.000, 15:26:31.131
156, -4492.00, -4613.23, -3969.18, -4080.21, 0.000, 0.000, 0.000, 15:26:31.131
157, -4488.06, -4619.06, -3981.15, -4131.88, 0.000, 0.000, 0.000, 15:26:31.149
158, -4481.04, -4620.07, -3953.58, -4108.82, 0.000, 0.000, 0.000, 15:26:31.150
159, -4476.68, -4610.19, -3981.56, -4087.57, 0.000, 0.000, 0.000, 15:26:31.159
160, -4495.92, -4623.41, -3971.46, -4103.27, 0.000, 0.000, 0.000, 15:26:31.159
161, -4505.37, -4635.11, -4001.73, -4145.89, 0.000, 0.000, 0.000, 15:26:31.159
162, -4521.37, -4641.23, -3995.94, -4082.09, 0.000, 0.000, 0.000, 15:26:31.160
163, -4511.08, -4634.92, -3969.40, -4104.47, 0.000, 0.000, 0.000, 15:26:31.179
164, -4517.52, -4625.69, -3949.50, -4022.98, 0.000, 0.000, 0.000, 15:26:31.179
165, -4499.06, -4624.27, -3966.11, -4126.41, 0.000, 0.000, 0.000, 15:26:31.189
166, -4490.85, -4607.52, -3932.36, -4107.11, 0.000, 0.000, 0.000, 15:26:31.189
167, -4475.67, -4605.19, -3955.29, -4056.78, 0.000, 0.000, 0.000, 15:26:31.189
168, -4466.36, -4605.70, -3976.45, -4098.36, 0.000, 0.000, 0.000, 15:26:31.189
169, -4475.86, -4609.05, -3962.29, -4103.66, 0.000, 0.000, 0.000, 15:26:31.205
170, -4492.68, -4629.15, -3959.08, -4146.23, 0.000, 0.000, 0.000, 15:26:31.205
171, -4482.70, -4612.38, -3918.57, -4115.00, 0.000, 0.000, 0.000, 15:26:31.219
172, -4484.99, -4613.64, -3929.70, -4119.18, 0.000, 0.000, 0.000, 15:26:31.219
173, -4495.32, -4616.32, -3982.51, -4111.94, 0.000, 0.000, 0.000, 15:26:31.219
174, -4510.13, -4627.96, -3983.03, -4129.94, 0.000, 0.000, 0.000, 15:26:31.219
175, -4509.80, -4625.13, -3996.38, -4156.83, 0.000, 0.000, 0.000, 15:26:31.249
176, -4522.16, -4641.00, -3976.35, -4133.57, 0.000, 0.000, 0.000, 15:26:31.249
177, -4534.73, -4643.44, -4030.05, -4107.41, 0.000, 0.000, 0.000, 15:26:31.260
178, -4536.05, -4657.76, -4013.54, -4181.31, 0.000, 0.000, 0.000, 15:26:31.260
179, -4524.22, -4642.93, -3990.52, -4120.55, 0.000, 0.000, 0.000, 15:26:31.260
180, -4505.72, -4631.62, -3975.51, -4070.39, 0.000, 0.000, 0.000, 15:26:31.260
181, -4520.28, -4646.91, -3990.53, -4122.09, 0.000, 0.000, 0.000, 15:26:31.264
182, -4513.35, -4640.03, -3973.10, -4082.42, 0.000, 0.000, 0.000, 15:26:31.264
183, -4498.22, -4625.65, -3943.83, -4109.09, 0.000, 0.000, 0.000, 15:26:31.283
184, -4492.02, -4622.85, -3963.40, -4099.80, 0.000, 0.000, 0.000, 15:26:31.284
185, -4492.99, -4611.74, -3956.08, -4076.21, 0.000, 0.000, 0.000, 15:26:31.284
186, -4500.46, -4611.25, -3970.76, -4081.94, 0.000, 0.000, 0.000, 15:26:31.284
187, -4485.76, -4612.89, -3990.81, -4093.90, 0.000, 0.000, 0.000, 15:26:31.296
188, -4497.69, -4612.97, -3951.34, -4058.58, 0.000, 0.000, 0.000, 15:26:31.296
189, -4489.09, -4620.34, -3956.21, -4106.93, 0.000, 0.000, 0.000, 15:26:31.311
190, -4513.88, -4625.08, -4009.13, -4128.78, 0.000, 0.000, 0.000, 15:26:31.311
191, -4513.85, -4628.48, -4027.50, -4084.20, 0.000, 0.000, 0.000, 15:26:31.311
192, -4505.86, -4622.89, -3946.15, -4106.93, 0.000, 0.000, 0.000, 15:26:31.311
193, -4508.29, -4635.74, -3978.62, -4101.74, 0.000, 0.000, 0.000, 15:26:31.324
194, -4529.62, -4646.51, -4008.63, -4113.19, 0.000, 0.000, 0.000, 15:26:31.324
195, -4510.04, -4634.83, -3923.05, -4099.58, 0.000, 0.000, 0.000, 15:26:31.339
196, -4515.79, -4634.33, -3997.49, -4100.24, 0.000, 0.000, 0.000, 15:26:31.339
197, -4512.79, -4643.27, -4017.23, -4131.01, 0.000, 0.000, 0.000, 15:26:31.339
198, -4507.58, -4641.08, -3960.39, -4121.43, 0.000, 0.000, 0.000, 15:26:31.339
199, -4502.31, -4632.88, -3979.30, -4102.13, 0.000, 0.000, 0.000, 15:26:31.360
200, -4504.53, -4633.87, -3948.03, -4107.13, 0.000, 0.000, 0.000, 15:26:31.360
0, -4499.62, -4636.71, -3998.71, -4143.03, 0.000, 0.000, 0.000, 15:26:31.360
1, -4482.60, -4616.12, -3953.64, -4075.42, 0.000, 0.000, 0.000, 15:26:31.399
2, -4501.83, -4622.60, -3984.27, -4110.83, 0.000, 0.000, 0.000, 15:26:31.399
3, -4502.71, -4616.52, -3985.22, -4093.21, 0.000, 0.000, 0.000, 15:26:31.399
4, -4487.40, -4610.51, -3949.05, -4119.88, 0.000, 0.000, 0.000, 15:26:31.400
5, -4486.89, -4591.20, -3961.26, -4103.50, 0.000, 0.000, 0.000, 15:26:31.400
6, -4488.52, -4588.35, -3969.65, -4062.06, 0.000, 0.000, 0.000, 15:26:31.400
7, -4482.05, -4600.05, -3983.09, -4089.96, 0.000, 0.000, 0.000, 15:26:31.400
8, -4489.70, -4605.81, -3970.78, -4093.09, 0.000, 0.000, 0.000, 15:26:31.400
9, -4492.86, -4611.27, -3974.02, -4190.67, 0.000, 0.000, 0.000, 15:26:31.421
10, -4491.71, -4617.28, -3971.87, -4102.42, 0.000, 0.000, 0.000, 15:26:31.421
11, -4505.07, -4609.14, -3993.26, -4106.82, 0.000, 0.000, 0.000, 15:26:31.422
12, -4505.10, -4628.96, -3961.94, -4088.67, 0.000, 0.000, 0.000, 15:26:31.422
13, -4511.31, -4630.89, -4003.86, -4177.61, 0.000, 0.000, 0.000, 15:26:31.429
14, -4490.67, -4622.49, -3960.23, -4071.45, 0.000, 0.000, 0.000, 15:26:31.429
15, -4496.11, -4620.15, -3941.08, -4089.12, 0.000, 0.000, 0.000, 15:26:31.455
16, -4488.55, -4621.89, -3963.41, -4082.81, 0.000, 0.000, 0.000, 15:26:31.455
17, -4482.52, -4623.40, -3941.48, -4038.79, 0.000, 0.000, 0.000, 15:26:31.455
18, -4463.82, -4605.98, -3942.92, -4105.26, 0.000, 0.000, 0.000, 15:26:31.455
19, -4465.13, -4596.60, -3951.30, -4097.77, 0.000, 0.000, 0.000, 15:26:31.459
20, -4477.82, -4614.60, -3939.22, -4111.92, 0.000, 0.000, 0.000, 15:26:31.459
21, -4487.38, -4620.35, -4004.96, -4106.66, 0.000, 0.000, 0.000, 15:26:31.490
22, -4487.41, -4614.70, -4025.53, -4053.11, 0.000, 0.000, 0.000, 15:26:31.490
23, -4488.93, -4622.48, -3985.67, -4087.07, 0.000, 0.000, 0.000, 15:26:31.491
24, -4504.90, -4611.10, -3988.59, -4109.45, 0.000, 0.000, 0.000, 15:26:31.491
25, -4521.52, -4631.02, -4016.36, -4121.20, 0.000, 0.000, 0.000, 15:26:31.491
26, -4512.81, -4626.80, -4019.87, -4104.92, 0.000, 0.000, 0.000, 15:26:31.491
27, -4517.06, -4621.86, -3927.88, -4108.72, 0.000, 0.000, 0.000, 15:26:31.523
28, -4517.87, -4621.16, -3951.83, -4116.48, 0.000, 0.000, 0.000, 15:26:31.523
29, -4512.27, -4615.57, -4001.01, -4056.80, 0.000, 0.000, 0.000, 15:26:31.524
30, -4494.87, -4610.02, -3959.23, -4118.92, 0.000, 0.000, 0.000, 15:26:31.524
31, -4499.53, -4614.94, -3956.85, -4064.76, 0.000, 0.000, 0.000, 15:26:31.524
32, -4514.86, -4640.15, -3999.19, -4134.39, 0.000, 0.000, 0.000, 15:26:31.524
33, -4517.14, -4641.69, -3964.77, -4085.35, 0.000, 0.000, 0.000, 15:26:31.534
34, -4499.31, -4632.34, -3933.74, -4092.18, 0.000, 0.000, 0.000, 15:26:31.534
35, -4487.22, -4624.65, -3958.88, -4155.18, 0.000, 0.000, 0.000, 15:26:31.534
36, -4490.67, -4618.46, -3967.70, -4121.52, 0.000, 0.000, 0.000, 15:26:31.534
37, -4495.13, -4614.65, -3928.76, -4110.10, 0.000, 0.000, 0.000, 15:26:31.561
38, -4470.04, -4607.77, -3964.16, -4086.33, 0.000, 0.000, 0.000, 15:26:31.561
39, -4485.17, -4616.30, -3989.40, -4083.69, 0.000, 0.000, 0.000, 15:26:31.580
40, -4507.12, -4641.33, -3982.25, -4117.72, 0.000, 0.000, 0.000, 15:26:31.580
41, -4525.23, -4647.14, -4016.43, -4127.92, 0.000, 0.000, 0.000, 15:26:31.580
42, -4526.11, -4638.88, -4006.01, -4133.38, 0.000, 0.000, 0.000, 15:26:31.580
43, -4524.47, -4640.78, -3963.24, -4073.48, 0.000, 0.000, 0.000, 15:26:31.594
44, -4521.41, -4651.76, -3922.44, -4112.06, 0.000, 0.000, 0.000, 15:26:31.594
45, -4527.19, -4647.13, -4006.97, -4160.19, 0.000, 0.000, 0.000, 15:26:31.595
46, -4515.64, -4640.19, -4021.42, -4106.60, 0.000, 0.000, 0.000, 15:26:31.595
47, -4523.78, -4641.57, -3988.44, -4161.19, 0.000, 0.000, 0.000, 15:26:31.595
48, -4523.35, -4641.11, -3920.27, -4145.85, 0.000, 0.000, 0.000, 15:26:31.595
49, -4520.04, -4648.92, -3994.45, -4131.48, 0.000, 0.000, 0.000, 15:26:31.610
50, -4506.89, -4628.70, -3954.17, -4086.76, 0.000, 0.000, 0.000, 15:26:31.610
51, -4506.08, -4636.77, -3972.76, -4090.31, 0.000, 0.000, 0.000, 15:26:31.624
52, -4497.64, -4635.60, -3972.40, -4138.54, 0.000, 0.000, 0.000, 15:26:31.624
53, -4511.35, -4634.46, -3963.29, -4117.40, 0.000, 0.000, 0.000, 15:26:31.624
54, -4480.90, -4605.11, -3967.24, -4074.73, 0.000, 0.000, 0.000, 15:26:31.624
55, -4490.60, -4616.29, -3970.61, -4126.77, 0.000, 0.000, 0.000, 15:26:31.639
56, -4488.74, -4605.69, -3993.10, -4120.35, 0.000, 0.000, 0.000, 15:26:31.639
57, -4499.82, -4608.97, -3965.03, -4054.40, 0.000, 0.000, 0.000, 15:26:31.654
58, -4486.49, -4607.38, -3968.80, -4064.59, 0.000, 0.000, 0.000, 15:26:31.654
59, -4493.94, -4606.24, -3971.42, -4089.61, 0.000, 0.000, 0.000, 15:26:31.655
60, -4497.05, -4609.62, -3938.93, -4083.70, 0.000, 0.000, 0.000, 15:26:31.655
61, -4501.45, -4623.80, -3946.56, -4100.01, 0.000, 0.000, 0.000, 15:26:31.694
62, -4502.23, -4619.18, -3945.41, -4082.27, 0.000, 0.000, 0.000, 15:26:31.694
63, -4511.76, -4612.44, -3965.03, -4110.72, 0.000, 0.000, 0.000, 15:26:31.694
64, -4511.03, -4625.95, -3974.13, -4109.91, 0.000, 0.000, 0.000, 15:26:31.694
65, -4513.58, -4631.32, -3981.79, -4085.64, 0.000, 0.000, 0.000, 15:26:31.694
66, -4508.26, -4618.97, -3974.24, -4055.93, 0.000, 0.000, 0.000, 15:26:31.695
67, -4510.76, -4626.35, -3994.84, -4096.37, 0.000, 0.000, 0.000, 15:26:31.706
68, -4508.80, -4638.66, -3954.46, -4128.17, 0.000, 0.000, 0.000, 15:26:31.706
69, -4499.64, -4640.48, -3984.99, -4121.88, 0.000, 0.000, 0.000, 15:26:31.714
70, -4498.20, -4634.68, -3944.05, -4088.78, 0.000, 0.000, 0.000, 15:26:31.714
71, -4494.79, -4617.56, -3967.60, -4079.90, 0.000, 0.000, 0.000, 15:26:31.738
72, -4495.45, -4607.92, -3982.74, -4119.44, 0.000, 0.000, 0.000, 15:26:31.738
73, -4495.06, -4602.52, -3967.61, -4087.13, 0.000, 0.000, 0.000, 15:26:31.738
74, -4480.30, -4600.62, -3949.75, -4116.02, 0.000, 0.000, 0.000, 15:26:31.739
75, -4487.61, -4597.21, -3958.15, -4101.48, 0.000, 0.000, 0.000, 15:26:31.744
76, -4503.71, -4625.45, -4017.64, -4129.26, 0.000, 0.000, 0.000, 15:26:31.744
77, -4514.27, -4632.50, -4005.74, -4117.21, 0.000, 0.000, 0.000, 15:26:31.760
78, -4508.14, -4630.90, -4017.17, -4101.87, 0.000, 0.000, 0.000, 15:26:31.760
79, -4518.94, -4636.87, -3989.17, -4090.03, 0.000, 0.000, 0.000, 15:26:31.761
80, -4508.58, -4634.11, -3960.57, -4073.53, 0.000, 0.000, 0.000, 15:26:31.762
81, -4517.39, -4624.56, -3970.92, -4099.73, 0.000, 0.000, 0.000, 15:26:31.776
82, -4500.21, -4603.59, -3942.08, -4083.05, 0.000, 0.000, 0.000, 15:26:31.776
83, -4482.40, -4584.52, -3976.27, -4061.05, 0.000, 0.000, 0.000, 15:26:31.776
84, -4475.94, -4592.27, -3997.44, -4107.03, 0.000, 0.000, 0.000, 15:26:31.776
85, -4477.98, -4597.74, -3927.90, -4061.29, 0.000, 0.000, 0.000, 15:26:31.791
86, -4478.62, -4596.51, -3925.94, -4041.72, 0.000, 0.000, 0.000, 15:26:31.791
87, -4477.30, -4609.48, -3943.11, -4104.55, 0.000, 0.000, 0.000, 15:26:31.819
88, -4495.27, -4624.69, -3998.97, -4115.99, 0.000, 0.000, 0.000, 15:26:31.819
89, -4498.74, -4612.86, -3930.38, -4125.61, 0.000, 0.000, 0.000, 15:26:31.839
90, -4491.47, -4619.81, -3950.81, -4075.73, 0.000, 0.000, 0.000, 15:26:31.839
91, -4485.61, -4597.65, -3960.69, -4120.77, 0.000, 0.000, 0.000, 15:26:31.840
92, -4484.41, -4591.47, -3963.04, -4081.79, 0.000, 0.000, 0.000, 15:26:31.840
93, -4505.57, -4594.44, -3944.33, -4095.04, 0.000, 0.000, 0.000, 15:26:31.840
94, -4499.60, -4606.31, -3986.56, -3998.92, 0.000, 0.000, 0.000, 15:26:31.840
95, -4496.61, -4616.31, -3979.83, -4104.48, 0.000, 0.000, 0.000, 15:26:31.840
96, -4515.33, -4635.86, -3974.48, -4123.41, 0.000, 0.000, 0.000, 15:26:31.840
97, -4520.63, -4639.62, -3954.61, -4101.38, 0.000, 0.000, 0.000, 15:26:31.851
98, -4503.53, -4633.68, -3961.49, -4085.55, 0.000, 0.000, 0.000, 15:26:31.851
99, -4496.18, -4614.55, -3955.66, -4068.87, 0.000, 0.000, 0.000, 15:26:31.872
100, -4499.33, -4624.06, -3981.74, -4122.47, 0.000, 0.000, 0.000, 15:26:31.872
101, -4477.89, -4616.90, -3959.60, -4070.96, 0.000, 0.000, 0.000, 15:26:31.873
102, -4481.91, -4598.37, -3939.10, -4108.93, 0.000, 0.000, 0.000, 15:26:31.873
103, -4481.80, -4606.78, -3988.51, -4099.98, 0.000, 0.000, 0.000, 15:26:31.879
104, -4486.62, -4612.38, -3941.36, -4134.74, 0.000, 0.000, 0.000, 15:26:31.879
105, -4498.38, -4615.65, -3899.08, -4124.05, 0.000, 0.000, 0.000, 15:26:31.894
106, -4497.93, -4618.62, -3966.72, -4122.04, 0.000, 0.000, 0.000, 15:26:31.894
107, -4487.02, -4610.25, -3981.16, -4088.25, 0.000, 0.000, 0.000, 15:26:31.901
108, -4490.31, -4613.87, -3989.05, -4076.30, 0.000, 0.000, 0.000, 15:26:31.901
109, -4500.18, -4619.81, -3962.02, -4117.11, 0.000, 0.000, 0.000, 15:26:31.909
110, -4497.06, -4613.45, -3954.88, -4106.64, 0.000, 0.000, 0.000, 15:26:31.909
111, -4499.51, -4608.94, -3991.87, -4109.95, 0.000, 0.000, 0.000, 15:26:31.925
112, -4514.39, -4622.54, -4005.86, -4122.52, 0.000, 0.000, 0.000, 15:26:31.925
113, -4514.37, -4628.70, -3953.46, -4127.36, 0.000, 0.000, 0.000, 15:26:32.013
114, -4512.82, -4643.70, -3968.05, -4092.40, 0.000, 0.000, 0.000, 15:26:32.013
115, -4504.27, -4639.82, -3975.73, -4071.19, 0.000, 0.000, 0.000, 15:26:32.013
116, -4535.99, -4643.70, -4035.25, -4107.38, 0.000, 0.000, 0.000, 15:26:32.013
117, -4522.55, -4644.95, -3935.88, -4133.74, 0.000, 0.000, 0.000, 15:26:32.014
118, -4516.27, -4636.87, -3952.88, -4112.20, 0.000, 0.000, 0.000, 15:26:32.014
119, -4504.50, -4631.32, -4031.39, -4144.79, 0.000, 0.000, 0.000, 15:26:32.015
