%OpenBCI Raw EEG Data
%
%Sample Rate = 200.0 Hz
%First Column = SampleIndex
%Last Column = Timestamp 
%Other Columns = EEG data in microvolts followed by Accel Data (in G) interleaved with Aux Data
0, -4553.93, -4992.44, -4443.40, -4597.46, 0.000, 0.000, 0.000, 15:33:59.770
1, -4554.87, -4989.36, -4395.05, -4591.91, 0.000, 0.000, 0.000, 15:33:59.787
2, -4541.90, -4974.08, -4418.29, -4547.88, 0.000, 0.000, 0.000, 15:33:59.788
3, -4511.83, -4943.85, -4382.00, -4506.67, 0.000, 0.000, 0.000, 15:33:59.813
4, -4511.63, -4927.77, -4364.24, -4519.41, 0.000, 0.000, 0.000, 15:33:59.814
5, -4473.18, -4894.60, -4395.86, -4554.21, 0.000, 0.000, 0.000, 15:33:59.815
6, -4478.63, -4905.95, -4362.02, -4534.79, 0.000, 0.000, 0.000, 15:33:59.816
7, -4469.86, -4903.62, -4368.27, -4499.46, 0.000, 0.000, 0.000, 15:33:59.816
8, -4461.46, -4888.79, -4316.47, -4469.00, 0.000, 0.000, 0.000, 15:33:59.817
9, -4472.94, -4895.46, -4331.99, -4493.39, 0.000, 0.000, 0.000, 15:33:59.817
10, -4460.96, -4880.42, -4341.51, -4494.32, 0.000, 0.000, 0.000, 15:33:59.817
11, -4458.79, -4870.53, -4348.03, -4436.87, 0.000, 0.000, 0.000, 15:33:59.922
12, -4448.01, -4865.40, -4336.28, -4448.51, 0.000, 0.000, 0.000, 15:33:59.922
13, -4451.80, -4866.79, -4317.11, -4465.96, 0.000, 0.000, 0.000, 15:33:59.922
14, -4456.44, -4878.76, -4308.54, -4506.87, 0.000, 0.000, 0.000, 15:33:59.924
15, -4442.24, -4875.02, -4315.75, -4467.67, 0.000, 0.000, 0.000, 15:33:59.925
16, -4411.96, -4837.96, -4298.11, -4390.95, 0.000, 0.000, 0.000, 15:33:59.926
17, -4419.01, -4861.04, -4328.83, -4474.63, 0.000, 0.000, 0.000, 15:33:59.926
18, -4423.05, -4846.56, -4324.21, -4475.02, 0.000, 0.000, 0.000, 15:33:59.927
19, -4425.35, -4842.13, -4298.85, -4467.02, 0.000, 0.000, 0.000, 15:33:59.927
20, -4457.33, -4861.61, -4346.14, -4448.45, 0.000, 0.000, 0.000, 15:33:59.927
21, -4459.03, -4881.79, -4400.73, -4511.68, 0.000, 0.000, 0.000, 15:33:59.928
22, -4434.91, -4871.51, -4335.78, -4490.84, 0.000, 0.000, 0.000, 15:33:59.932
23, -4419.88, -4854.20, -4326.18, -4434.44, 0.000, 0.000, 0.000, 15:33:59.932
24, -4452.32, -4872.40, -4330.65, -4479.28, 0.000, 0.000, 0.000, 15:33:59.933
25, -4455.49, -4878.82, -4331.12, -4473.68, 0.000, 0.000, 0.000, 15:33:59.934
26, -4415.16, -4849.27, -4274.41, -4460.43, 0.000, 0.000, 0.000, 15:33:59.934
27, -4453.28, -4868.68, -4248.63, -4491.49, 0.000, 0.000, 0.000, 15:33:59.951
28, -4439.42, -4877.43, -4313.55, -4489.14, 0.000, 0.000, 0.000, 15:33:59.951
29, -4464.29, -4892.86, -4379.59, -4493.71, 0.000, 0.000, 0.000, 15:33:59.951
30, -4457.64, -4879.01, -4312.31, -4493.81, 0.000, 0.000, 0.000, 15:33:59.952
31, -4440.51, -4866.02, -4304.47, -4450.69, 0.000, 0.000, 0.000, 15:33:59.952
32, -4426.42, -4862.95, -4294.01, -4470.72, 0.000, 0.000, 0.000, 15:33:59.952
33, -4439.85, -4864.00, -4330.35, -4504.38, 0.000, 0.000, 0.000, 15:33:59.952
34, -4438.55, -4872.20, -4345.86, -4487.06, 0.000, 0.000, 0.000, 15:33:59.953
35, -4445.80, -4861.02, -4311.45, -4481.19, 0.000, 0.000, 0.000, 15:33:59.953
36, -4441.65, -4853.04, -4322.87, -4461.54, 0.000, 0.000, 0.000, 15:33:59.953
37, -4436.12, -4869.26, -4342.28, -4463.24, 0.000, 0.000, 0.000, 15:33:59.973
38, -4430.87, -4854.28, -4277.79, -4465.30, 0.000, 0.000, 0.000, 15:33:59.974
39, -4424.27, -4853.34, -4300.39, -4468.46, 0.000, 0.000, 0.000, 15:34:00.009
40, -4432.28, -4848.69, -4311.87, -4464.00, 0.000, 0.000, 0.000, 15:34:00.010
41, -4432.32, -4843.53, -4310.60, -4451.19, 0.000, 0.000, 0.000, 15:34:00.010
42, -4435.37, -4851.69, -4275.63, -4428.33, 0.000, 0.000, 0.000, 15:34:00.010
43, -4433.03, -4852.23, -4293.40, -4459.04, 0.000, 0.000, 0.000, 15:34:00.012
44, -4438.63, -4854.76, -4317.00, -4438.46, 0.000, 0.000, 0.000, 15:34:00.012
45, -4420.89, -4847.81, -4305.65, -4457.97, 0.000, 0.000, 0.000, 15:34:00.012
46, -4446.17, -4861.10, -4303.20, -4432.25, 0.000, 0.000, 0.000, 15:34:00.013
47, -4430.61, -4861.48, -4310.35, -4466.24, 0.000, 0.000, 0.000, 15:34:00.013
48, -4448.28, -4862.55, -4280.61, -4477.78, 0.000, 0.000, 0.000, 15:34:00.014
49, -4443.62, -4861.92, -4335.19, -4470.16, 0.000, 0.000, 0.000, 15:34:00.024
50, -4450.93, -4866.13, -4325.36, -4458.03, 0.000, 0.000, 0.000, 15:34:00.024
51, -4446.67, -4874.34, -4354.57, -4488.05, 0.000, 0.000, 0.000, 15:34:00.085
52, -4443.26, -4868.50, -4318.00, -4432.91, 0.000, 0.000, 0.000, 15:34:00.085
53, -4438.19, -4873.29, -4290.25, -4481.33, 0.000, 0.000, 0.000, 15:34:00.086
54, -4436.28, -4855.61, -4319.09, -4476.83, 0.000, 0.000, 0.000, 15:34:00.086
55, -4419.88, -4849.90, -4270.40, -4480.35, 0.000, 0.000, 0.000, 15:34:00.087
56, -4426.41, -4844.30, -4323.60, -4467.02, 0.000, 0.000, 0.000, 15:34:00.087
57, -4424.04, -4849.97, -4288.56, -4435.24, 0.000, 0.000, 0.000, 15:34:00.087
58, -4438.70, -4861.23, -4340.73, -4472.11, 0.000, 0.000, 0.000, 15:34:00.088
59, -4426.94, -4860.04, -4286.48, -4485.60, 0.000, 0.000, 0.000, 15:34:00.088
60, -4421.53, -4855.24, -4317.62, -4459.06, 0.000, 0.000, 0.000, 15:34:00.088
61, -4425.16, -4842.38, -4301.24, -4402.87, 0.000, 0.000, 0.000, 15:34:00.123
62, -4423.57, -4845.92, -4308.13, -4463.47, 0.000, 0.000, 0.000, 15:34:00.123
63, -4417.75, -4857.92, -4275.82, -4479.29, 0.000, 0.000, 0.000, 15:34:00.157
64, -4439.37, -4857.52, -4342.36, -4458.34, 0.000, 0.000, 0.000, 15:34:00.174
65, -4446.99, -4875.18, -4294.37, -4521.49, 0.000, 0.000, 0.000, 15:34:00.175
66, -4445.48, -4869.82, -4316.86, -4448.16, 0.000, 0.000, 0.000, 15:34:00.175
67, -4436.95, -4851.09, -4308.62, -4465.77, 0.000, 0.000, 0.000, 15:34:00.175
68, -4433.39, -4864.93, -4277.35, -4514.79, 0.000, 0.000, 0.000, 15:34:00.175
69, -4423.25, -4847.67, -4321.01, -4446.28, 0.000, 0.000, 0.000, 15:34:00.176
70, -4437.64, -4856.30, -4359.27, -4471.16, 0.000, 0.000, 0.000, 15:34:00.176
71, -4444.92, -4857.64, -4292.21, -4446.16, 0.000, 0.000, 0.000, 15:34:00.176
72, -4444.84, -4864.47, -4353.84, -4482.81, 0.000, 0.000, 0.000, 15:34:00.176
73, -4445.83, -4869.65, -4338.80, -4464.23, 0.000, 0.000, 0.000, 15:34:00.177
74, -4434.57, -4862.83, -4337.06, -4447.82, 0.000, 0.000, 0.000, 15:34:00.177
75, -4429.60, -4855.00, -4276.44, -4457.51, 0.000, 0.000, 0.000, 15:34:00.177
76, -4433.87, -4861.94, -4248.88, -4462.66, 0.000, 0.000, 0.000, 15:34:00.177
77, -4445.95, -4868.17, -4296.21, -4465.58, 0.000, 0.000, 0.000, 15:34:00.177
78, -4446.38, -4852.42, -4318.61, -4454.13, 0.000, 0.000, 0.000, 15:34:00.178
79, -4425.08, -4837.55, -4362.46, -4433.69, 0.000, 0.000, 0.000, 15:34:00.178
80, -4449.28, -4853.98, -4298.11, -4435.88, 0.000, 0.000, 0.000, 15:34:00.179
81, -4454.12, -4878.28, -4315.38, -4446.49, 0.000, 0.000, 0.000, 15:34:00.244
82, -4451.10, -4883.69, -4366.15, -4485.22, 0.000, 0.000, 0.000, 15:34:00.244
83, -4434.53, -4874.65, -4323.70, -4470.59, 0.000, 0.000, 0.000, 15:34:00.245
84, -4453.26, -4869.20, -4362.46, -4512.78, 0.000, 0.000, 0.000, 15:34:00.245
85, -4463.15, -4872.04, -4339.97, -4465.72, 0.000, 0.000, 0.000, 15:34:00.245
86, -4436.90, -4867.74, -4330.90, -4449.23, 0.000, 0.000, 0.000, 15:34:00.246
87, -4432.53, -4856.30, -4347.48, -4444.80, 0.000, 0.000, 0.000, 15:34:00.246
88, -4419.76, -4837.55, -4246.18, -4433.25, 0.000, 0.000, 0.000, 15:34:00.246
89, -4417.61, -4847.53, -4295.75, -4468.02, 0.000, 0.000, 0.000, 15:34:00.246
90, -4454.19, -4874.91, -4314.88, -4467.37, 0.000, 0.000, 0.000, 15:34:00.247
91, -4441.75, -4867.14, -4266.00, -4478.41, 0.000, 0.000, 0.000, 15:34:00.247
92, -4445.10, -4866.50, -4335.66, -4496.41, 0.000, 0.000, 0.000, 15:34:00.247
93, -4452.77, -4879.80, -4274.84, -4468.34, 0.000, 0.000, 0.000, 15:34:00.316
94, -4442.02, -4875.46, -4377.29, -4542.06, 0.000, 0.000, 0.000, 15:34:00.316
95, -4455.00, -4865.40, -4286.92, -4461.03, 0.000, 0.000, 0.000, 15:34:00.317
96, -4440.29, -4864.60, -4374.04, -4420.72, 0.000, 0.000, 0.000, 15:34:00.317
97, -4446.91, -4873.76, -4370.45, -4480.07, 0.000, 0.000, 0.000, 15:34:00.317
98, -4441.69, -4869.56, -4285.06, -4470.21, 0.000, 0.000, 0.000, 15:34:00.317
99, -4433.07, -4860.98, -4276.79, -4498.15, 0.000, 0.000, 0.000, 15:34:00.324
100, -4425.59, -4853.98, -4303.96, -4459.44, 0.000, 0.000, 0.000, 15:34:00.324
101, -4435.53, -4850.26, -4281.81, -4448.41, 0.000, 0.000, 0.000, 15:34:00.325
102, -4442.51, -4857.74, -4331.84, -4480.63, 0.000, 0.000, 0.000, 15:34:00.325
103, -4429.77, -4853.57, -4324.35, -4455.87, 0.000, 0.000, 0.000, 15:34:00.325
104, -4435.53, -4846.43, -4302.01, -4463.06, 0.000, 0.000, 0.000, 15:34:00.326
105, -4445.86, -4866.16, -4363.99, -4454.90, 0.000, 0.000, 0.000, 15:34:00.326
106, -4441.90, -4865.46, -4317.44, -4484.78, 0.000, 0.000, 0.000, 15:34:00.327
107, -4404.36, -4842.41, -4282.08, -4512.77, 0.000, 0.000, 0.000, 15:34:00.327
108, -4423.91, -4836.55, -4297.48, -4450.74, 0.000, 0.000, 0.000, 15:34:00.328
109, -4431.18, -4862.71, -4322.73, -4480.94, 0.000, 0.000, 0.000, 15:34:00.369
110, -4430.55, -4855.24, -4314.39, -4440.46, 0.000, 0.000, 0.000, 15:34:00.370
111, -4437.54, -4857.09, -4298.43, -4433.02, 0.000, 0.000, 0.000, 15:34:00.371
112, -4434.81, -4846.34, -4302.63, -4503.68, 0.000, 0.000, 0.000, 15:34:00.371
113, -4441.73, -4856.50, -4308.77, -4474.70, 0.000, 0.000, 0.000, 15:34:00.371
114, -4436.20, -4859.47, -4313.02, -4428.81, 0.000, 0.000, 0.000, 15:34:00.371
115, -4436.88, -4847.93, -4279.61, -4419.62, 0.000, 0.000, 0.000, 15:34:00.371
116, -4431.95, -4851.54, -4347.25, -4464.37, 0.000, 0.000, 0.000, 15:34:00.372
117, -4452.74, -4882.59, -4334.81, -4504.12, 0.000, 0.000, 0.000, 15:34:00.372
118, -4453.06, -4868.28, -4301.33, -4469.64, 0.000, 0.000, 0.000, 15:34:00.372
119, -4431.79, -4848.34, -4279.64, -4466.83, 0.000, 0.000, 0.000, 15:34:00.372
120, -4424.57, -4846.16, -4305.51, -4421.56, 0.000, 0.000, 0.000, 15:34:00.373
121, -4423.78, -4847.45, -4342.80, -4455.62, 0.000, 0.000, 0.000, 15:34:00.414
122, -4423.88, -4861.11, -4350.30, -4484.89, 0.000, 0.000, 0.000, 15:34:00.415
123, -4431.24, -4844.21, -4322.77, -4474.62, 0.000, 0.000, 0.000, 15:34:00.415
124, -4414.19, -4833.86, -4265.77, -4407.88, 0.000, 0.000, 0.000, 15:34:00.415
125, -4432.12, -4851.16, -4295.42, -4468.29, 0.000, 0.000, 0.000, 15:34:00.415
126, -4437.43, -4853.01, -4326.41, -4493.80, 0.000, 0.000, 0.000, 15:34:00.415
127, -4442.47, -4851.43, -4304.63, -4494.42, 0.000, 0.000, 0.000, 15:34:00.426
128, -4450.30, -4850.00, -4297.48, -4434.39, 0.000, 0.000, 0.000, 15:34:00.429
129, -4422.00, -4838.17, -4341.81, -4498.27, 0.000, 0.000, 0.000, 15:34:00.436
130, -4428.82, -4848.73, -4316.89, -4529.26, 0.000, 0.000, 0.000, 15:34:00.436
131, -4419.85, -4847.25, -4335.25, -4499.93, 0.000, 0.000, 0.000, 15:34:00.436
132, -4422.86, -4838.91, -4307.60, -4429.64, 0.000, 0.000, 0.000, 15:34:00.468
133, -4447.76, -4854.09, -4306.94, -4478.37, 0.000, 0.000, 0.000, 15:34:00.468
134, -4450.70, -4864.33, -4335.05, -4458.36, 0.000, 0.000, 0.000, 15:34:00.469
135, -4436.37, -4857.33, -4243.31, -4431.20, 0.000, 0.000, 0.000, 15:34:00.469
136, -4432.57, -4852.86, -4354.85, -4453.42, 0.000, 0.000, 0.000, 15:34:00.469
137, -4420.43, -4832.32, -4337.38, -4482.90, 0.000, 0.000, 0.000, 15:34:00.469
138, -4436.67, -4851.63, -4310.81, -4487.96, 0.000, 0.000, 0.000, 15:34:00.470
139, -4436.74, -4849.43, -4302.69, -4442.70, 0.000, 0.000, 0.000, 15:34:00.505
140, -4449.39, -4850.54, -4291.96, -4434.18, 0.000, 0.000, 0.000, 15:34:00.505
141, -4453.50, -4866.52, -4324.54, -4471.63, 0.000, 0.000, 0.000, 15:34:00.531
142, -4455.32, -4882.58, -4329.34, -4474.59, 0.000, 0.000, 0.000, 15:34:00.531
143, -4438.69, -4850.52, -4346.17, -4441.94, 0.000, 0.000, 0.000, 15:34:00.531
144, -4449.02, -4862.26, -4334.35, -4469.20, 0.000, 0.000, 0.000, 15:34:00.532
145, -4447.73, -4870.46, -4303.63, -4451.33, 0.000, 0.000, 0.000, 15:34:00.532
146, -4469.08, -4876.91, -4327.60, -4502.02, 0.000, 0.000, 0.000, 15:34:00.532
147, -4451.89, -4857.90, -4312.50, -4496.15, 0.000, 0.000, 0.000, 15:34:00.532
148, -4460.17, -4870.34, -4342.61, -4434.12, 0.000, 0.000, 0.000, 15:34:00.533
149, -4441.45, -4845.00, -4297.15, -4474.68, 0.000, 0.000, 0.000, 15:34:00.533
150, -4468.59, -4869.42, -4280.69, -4481.85, 0.000, 0.000, 0.000, 15:34:00.533
151, -4482.86, -4872.93, -4322.95, -4456.65, 0.000, 0.000, 0.000, 15:34:00.589
152, -4472.05, -4868.10, -4360.15, -4450.85, 0.000, 0.000, 0.000, 15:34:00.589
153, -4436.36, -4841.34, -4288.81, -4434.71, 0.000, 0.000, 0.000, 15:34:00.590
154, -4437.07, -4847.54, -4306.67, -4464.20, 0.000, 0.000, 0.000, 15:34:00.590
155, -4422.66, -4812.64, -4274.40, -4431.50, 0.000, 0.000, 0.000, 15:34:00.590
156, -4453.87, -4842.73, -4288.90, -4476.64, 0.000, 0.000, 0.000, 15:34:00.590
157, -4471.65, -4881.63, -4275.99, -4458.16, 0.000, 0.000, 0.000, 15:34:00.590
158, -4462.27, -4865.40, -4348.07, -4442.57, 0.000, 0.000, 0.000, 15:34:00.591
159, -4473.60, -4868.25, -4304.00, -4480.07, 0.000, 0.000, 0.000, 15:34:00.591
160, -4461.73, -4838.35, -4302.85, -4441.94, 0.000, 0.000, 0.000, 15:34:00.591
161, -4437.68, -4838.06, -4313.05, -4436.26, 0.000, 0.000, 0.000, 15:34:00.591
162, -4442.94, -4843.86, -4314.06, -4437.33, 0.000, 0.000, 0.000, 15:34:00.591
163, -4428.32, -4847.48, -4333.38, -4480.34, 0.000, 0.000, 0.000, 15:34:00.626
164, -4439.56, -4852.39, -4347.28, -4455.08, 0.000, 0.000, 0.000, 15:34:00.626
165, -4445.73, -4840.23, -4293.63, -4460.96, 0.000, 0.000, 0.000, 15:34:00.626
166, -4427.81, -4833.84, -4270.69, -4443.25, 0.000, 0.000, 0.000, 15:34:00.627
167, -4425.18, -4819.98, -4285.01, -4460.26, 0.000, 0.000, 0.000, 15:34:00.627
168, -4437.97, -4834.47, -4313.88, -4434.88, 0.000, 0.000, 0.000, 15:34:00.627
169, -4440.55, -4842.47, -4312.06, -4438.54, 0.000, 0.000, 0.000, 15:34:00.648
170, -4441.48, -4849.41, -4324.21, -4474.52, 0.000, 0.000, 0.000, 15:34:00.648
171, -4406.47, -4833.78, -4276.42, -4421.88, 0.000, 0.000, 0.000, 15:34:00.649
172, -4430.05, -4853.19, -4283.66, -4466.07, 0.000, 0.000, 0.000, 15:34:00.649
173, -4413.90, -4793.11, -4286.73, -4439.13, 0.000, 0.000, 0.000, 15:34:00.649
174, -4397.46, -4809.03, -4287.27, -4467.92, 0.000, 0.000, 0.000, 15:34:00.649
175, -4382.38, -4765.04, -4266.32, -4442.18, 0.000, 0.000, 0.000, 15:34:00.655
176, -4398.47, -4790.25, -4219.27, -4456.47, 0.000, 0.000, 0.000, 15:34:00.655
177, -4413.50, -4816.49, -4296.52, -4461.47, 0.000, 0.000, 0.000, 15:34:00.668
178, -4420.35, -4842.35, -4348.68, -4458.45, 0.000, 0.000, 0.000, 15:34:00.668
179, -4400.49, -4822.06, -4330.82, -4435.37, 0.000, 0.000, 0.000, 15:34:00.669
180, -4432.69, -4838.24, -4305.70, -4477.05, 0.000, 0.000, 0.000, 15:34:00.669
181, -4458.42, -4866.80, -4324.31, -4523.39, 0.000, 0.000, 0.000, 15:34:00.712
182, -4440.31, -4836.73, -4314.95, -4514.28, 0.000, 0.000, 0.000, 15:34:00.713
183, -4431.59, -4813.04, -4299.18, -4445.07, 0.000, 0.000, 0.000, 15:34:00.713
184, -4440.84, -4834.69, -4276.27, -4435.41, 0.000, 0.000, 0.000, 15:34:00.713
185, -4468.89, -4844.80, -4320.92, -4494.45, 0.000, 0.000, 0.000, 15:34:00.713
186, -4457.39, -4856.13, -4319.98, -4411.29, 0.000, 0.000, 0.000, 15:34:00.714
187, -4443.45, -4836.15, -4273.85, -4447.68, 0.000, 0.000, 0.000, 15:34:00.726
188, -4439.99, -4830.12, -4289.33, -4478.50, 0.000, 0.000, 0.000, 15:34:00.727
189, -4446.37, -4826.20, -4258.43, -4450.25, 0.000, 0.000, 0.000, 15:34:00.729
190, -4455.06, -4862.60, -4308.81, -4521.65, 0.000, 0.000, 0.000, 15:34:00.729
191, -4428.46, -4823.38, -4308.50, -4431.94, 0.000, 0.000, 0.000, 15:34:00.730
192, -4423.34, -4808.36, -4316.90, -4460.04, 0.000, 0.000, 0.000, 15:34:00.730
193, -4420.92, -4794.45, -4234.66, -4448.83, 0.000, 0.000, 0.000, 15:34:00.742
194, -4451.64, -4830.09, -4293.76, -4493.42, 0.000, 0.000, 0.000, 15:34:00.743
195, -4465.76, -4843.25, -4231.81, -4484.38, 0.000, 0.000, 0.000, 15:34:00.760
196, -4445.41, -4821.07, -4274.46, -4443.75, 0.000, 0.000, 0.000, 15:34:00.760
197, -4503.07, -4845.75, -4392.32, -4465.95, 0.000, 0.000, 0.000, 15:34:00.760
198, -4506.57, -4861.90, -4311.04, -4482.88, 0.000, 0.000, 0.000, 15:34:00.761
199, -4534.24, -4873.25, -4339.06, -4486.35, 0.000, 0.000, 0.000, 15:34:00.772
200, -4504.27, -4851.38, -4347.79, -4461.44, 0.000, 0.000, 0.000, 15:34:00.773
0, -4502.97, -4849.48, -4356.45, -4484.31, 0.000, 0.000, 0.000, 15:34:00.773
1, -4490.05, -4829.48, -4309.83, -4446.03, 0.000, 0.000, 0.000, 15:34:00.792
2, -4512.22, -4845.62, -4297.24, -4479.38, 0.000, 0.000, 0.000, 15:34:00.793
3, -4535.31, -4876.80, -4346.30, -4467.19, 0.000, 0.000, 0.000, 15:34:00.842
4, -4523.97, -4845.36, -4304.68, -4458.45, 0.000, 0.000, 0.000, 15:34:00.843
5, -4512.03, -4852.28, -4296.30, -4497.87, 0.000, 0.000, 0.000, 15:34:00.843
6, -4521.04, -4865.34, -4264.77, -4452.76, 0.000, 0.000, 0.000, 15:34:00.843
7, -4516.91, -4873.06, -4356.64, -4473.71, 0.000, 0.000, 0.000, 15:34:00.844
8, -4518.59, -4862.80, -4258.22, -4476.00, 0.000, 0.000, 0.000, 15:34:00.846
9, -4531.99, -4889.69, -4270.08, -4500.52, 0.000, 0.000, 0.000, 15:34:00.846
10, -4487.58, -4844.26, -4347.34, -4444.57, 0.000, 0.000, 0.000, 15:34:00.846
11, -4495.58, -4849.29, -4328.55, -4465.91, 0.000, 0.000, 0.000, 15:34:00.847
12, -4472.13, -4832.09, -4344.50, -4474.19, 0.000, 0.000, 0.000, 15:34:00.847
13, -4489.29, -4870.95, -4306.51, -4481.81, 0.000, 0.000, 0.000, 15:34:00.878
14, -4482.10, -4859.33, -4327.25, -4505.41, 0.000, 0.000, 0.000, 15:34:00.878
15, -4499.26, -4883.57, -4326.26, -4425.16, 0.000, 0.000, 0.000, 15:34:00.878
16, -4506.97, -4890.03, -4383.79, -4522.91, 0.000, 0.000, 0.000, 15:34:00.878
17, -4471.22, -4870.31, -4339.21, -4558.11, 0.000, 0.000, 0.000, 15:34:00.879
18, -4463.43, -4843.58, -4315.03, -4500.38, 0.000, 0.000, 0.000, 15:34:00.879
19, -4478.53, -4862.72, -4310.40, -4489.99, 0.000, 0.000, 0.000, 15:34:00.879
20, -4463.29, -4848.77, -4307.38, -4508.84, 0.000, 0.000, 0.000, 15:34:00.879
21, -4438.56, -4835.93, -4302.54, -4435.50, 0.000, 0.000, 0.000, 15:34:00.892
22, -4449.06, -4849.55, -4298.94, -4464.35, 0.000, 0.000, 0.000, 15:34:00.893
23, -4457.16, -4840.68, -4314.85, -4472.92, 0.000, 0.000, 0.000, 15:34:00.895
24, -4445.05, -4844.82, -4310.17, -4439.32, 0.000, 0.000, 0.000, 15:34:00.895
25, -4461.06, -4854.09, -4310.18, -4462.61, 0.000, 0.000, 0.000, 15:34:00.980
26, -4456.32, -4860.84, -4272.12, -4447.09, 0.000, 0.000, 0.000, 15:34:00.981
27, -4442.90, -4840.39, -4324.12, -4438.97, 0.000, 0.000, 0.000, 15:34:00.981
28, -4467.52, -4867.18, -4353.41, -4509.35, 0.000, 0.000, 0.000, 15:34:00.981
29, -4450.05, -4852.09, -4287.55, -4477.81, 0.000, 0.000, 0.000, 15:34:00.982
30, -4432.11, -4842.37, -4331.17, -4509.06, 0.000, 0.000, 0.000, 15:34:00.983
31, -4441.73, -4846.67, -4338.15, -4519.27, 0.000, 0.000, 0.000, 15:34:00.984
32, -4443.16, -4869.70, -4303.66, -4468.50, 0.000, 0.000, 0.000, 15:34:00.984
33, -4434.51, -4849.06, -4322.16, -4457.10, 0.000, 0.000, 0.000, 15:34:00.984
34, -4434.62, -4839.90, -4312.67, -4480.45, 0.000, 0.000, 0.000, 15:34:00.984
35, -4435.62, -4829.22, -4316.54, -4477.28, 0.000, 0.000, 0.000, 15:34:00.985
36, -4441.55, -4850.42, -4315.36, -4484.64, 0.000, 0.000, 0.000, 15:34:00.985
37, -4467.44, -4866.07, -4312.33, -4462.10, 0.000, 0.000, 0.000, 15:34:00.985
38, -4451.67, -4861.07, -4315.25, -4441.48, 0.000, 0.000, 0.000, 15:34:00.985
39, -4423.52, -4850.03, -4292.22, -4406.86, 0.000, 0.000, 0.000, 15:34:00.986
40, -4457.60, -4848.17, -4284.85, -4486.42, 0.000, 0.000, 0.000, 15:34:00.986
41, -4423.39, -4831.51, -4315.31, -4478.58, 0.000, 0.000, 0.000, 15:34:00.986
42, -4436.25, -4855.84, -4311.66, -4494.87, 0.000, 0.000, 0.000, 15:34:00.986
43, -4426.11, -4836.04, -4313.17, -4469.07, 0.000, 0.000, 0.000, 15:34:01.056
44, -4425.74, -4837.88, -4312.55, -4439.38, 0.000, 0.000, 0.000, 15:34:01.057
45, -4448.00, -4851.44, -4318.64, -4463.16, 0.000, 0.000, 0.000, 15:34:01.057
46, -4437.87, -4847.94, -4308.41, -4465.56, 0.000, 0.000, 0.000, 15:34:01.057
47, -4426.50, -4838.56, -4297.07, -4435.23, 0.000, 0.000, 0.000, 15:34:01.057
48, -4422.65, -4848.37, -4276.41, -4478.43, 0.000, 0.000, 0.000, 15:34:01.057
49, -4417.00, -4840.65, -4294.01, -4477.01, 0.000, 0.000, 0.000, 15:34:01.058
50, -4434.11, -4835.17, -4258.26, -4468.27, 0.000, 0.000, 0.000, 15:34:01.059
51, -4441.57, -4847.41, -4300.69, -4474.52, 0.000, 0.000, 0.000, 15:34:01.059
52, -4450.15, -4853.14, -4334.05, -4485.08, 0.000, 0.000, 0.000, 15:34:01.059
53, -4460.93, -4872.94, -4351.52, -4488.58, 0.000, 0.000, 0.000, 15:34:01.060
54, -4453.75, -4862.13, -4301.48, -4440.90, 0.000, 0.000, 0.000, 15:34:01.068
55, -4447.29, -4853.82, -4305.49, -4429.20, 0.000, 0.000, 0.000, 15:34:01.068
56, -4444.12, -4850.50, -4311.33, -4474.63, 0.000, 0.000, 0.000, 15:34:01.068
57, -4446.11, -4850.05, -4309.15, -4457.68, 0.000, 0.000, 0.000, 15:34:01.131
58, -4419.27, -4838.94, -4308.54, -4466.77, 0.000, 0.000, 0.000, 15:34:01.131
59, -4418.55, -4839.00, -4276.72, -4481.07, 0.000, 0.000, 0.000, 15:34:01.131
60, -4451.87, -4862.30, -4319.83, -4492.44, 0.000, 0.000, 0.000, 15:34:01.131
61, -4457.82, -4886.40, -4358.92, -4507.30, 0.000, 0.000, 0.000, 15:34:01.132
62, -4446.13, -4870.68, -4351.79, -4495.14, 0.000, 0.000, 0.000, 15:34:01.132
63, -4456.71, -4860.29, -4367.43, -4433.53, 0.000, 0.000, 0.000, 15:34:01.132
64, -4447.25, -4871.43, -4315.75, -4448.78, 0.000, 0.000, 0.000, 15:34:01.132
65, -4449.98, -4864.68, -4317.12, -4389.73, 0.000, 0.000, 0.000, 15:34:01.146
66, -4437.00, -4846.54, -4320.55, -4353.09, 0.000, 0.000, 0.000, 15:34:01.146
67, -4434.27, -4839.88, -4303.61, -4420.05, 0.000, 0.000, 0.000, 15:34:01.146
68, -4434.25, -4836.61, -4325.21, -4422.56, 0.000, 0.000, 0.000, 15:34:01.146
69, -4449.65, -4864.12, -4333.03, -4485.41, 0.000, 0.000, 0.000, 15:34:01.147
70, -4443.46, -4872.50, -4348.77, -4476.14, 0.000, 0.000, 0.000, 15:34:01.147
71, -4433.81, -4858.63, -4332.34, -4478.15, 0.000, 0.000, 0.000, 15:34:01.166
72, -4483.13, -4862.98, -4299.02, -4499.50, 0.000, 0.000, 0.000, 15:34:01.166
73, -4442.88, -4866.33, -4326.17, -4506.77, 0.000, 0.000, 0.000, 15:34:01.167
74, -4441.61, -4852.51, -4323.12, -4480.84, 0.000, 0.000, 0.000, 15:34:01.167
75, -4453.94, -4861.57, -4317.84, -4482.02, 0.000, 0.000, 0.000, 15:34:01.168
76, -4452.64, -4860.83, -4313.78, -4513.56, 0.000, 0.000, 0.000, 15:34:01.168
77, -4451.18, -4866.66, -4276.90, -4510.05, 0.000, 0.000, 0.000, 15:34:01.168
78, -4435.51, -4870.04, -4256.03, -4518.20, 0.000, 0.000, 0.000, 15:34:01.168
79, -4445.06, -4867.74, -4286.69, -4493.24, 0.000, 0.000, 0.000, 15:34:01.178
80, -4454.71, -4880.35, -4320.64, -4517.23, 0.000, 0.000, 0.000, 15:34:01.178
81, -4456.65, -4868.07, -4358.83, -4501.64, 0.000, 0.000, 0.000, 15:34:01.192
82, -4459.83, -4865.51, -4325.95, -4481.70, 0.000, 0.000, 0.000, 15:34:01.193
83, -4439.10, -4848.13, -4360.60, -4462.54, 0.000, 0.000, 0.000, 15:34:01.193
84, -4452.48, -4863.22, -4349.63, -4480.68, 0.000, 0.000, 0.000, 15:34:01.193
85, -4445.33, -4860.32, -4300.28, -4520.63, 0.000, 0.000, 0.000, 15:34:01.229
86, -4450.26, -4879.68, -4324.98, -4480.61, 0.000, 0.000, 0.000, 15:34:01.229
87, -4442.87, -4854.87, -4294.32, -4414.39, 0.000, 0.000, 0.000, 15:34:01.229
88, -4448.78, -4869.69, -4334.35, -4487.64, 0.000, 0.000, 0.000, 15:34:01.229
89, -4453.00, -4870.20, -4313.68, -4464.63, 0.000, 0.000, 0.000, 15:34:01.229
90, -4439.25, -4855.71, -4341.53, -4473.47, 0.000, 0.000, 0.000, 15:34:01.230
91, -4433.43, -4842.48, -4342.44, -4431.68, 0.000, 0.000, 0.000, 15:34:01.260
92, -4423.49, -4839.51, -4276.47, -4448.24, 0.000, 0.000, 0.000, 15:34:01.264
93, -4428.05, -4860.70, -4301.05, -4466.61, 0.000, 0.000, 0.000, 15:34:01.264
94, -4442.63, -4862.37, -4318.35, -4422.56, 0.000, 0.000, 0.000, 15:34:01.264
95, -4439.81, -4864.95, -4318.18, -4481.14, 0.000, 0.000, 0.000, 15:34:01.264
96, -4461.48, -4876.60, -4320.00, -4548.96, 0.000, 0.000, 0.000, 15:34:01.265
97, -4458.47, -4886.59, -4300.38, -4473.25, 0.000, 0.000, 0.000, 15:34:01.297
98, -4432.02, -4869.50, -4295.96, -4478.60, 0.000, 0.000, 0.000, 15:34:01.298
99, -4438.61, -4865.71, -4307.95, -4426.76, 0.000, 0.000, 0.000, 15:34:01.298
100, -4422.11, -4835.93, -4279.66, -4461.46, 0.000, 0.000, 0.000, 15:34:01.318
101, -4445.77, -4843.33, -4347.17, -4463.91, 0.000, 0.000, 0.000, 15:34:01.319
102, -4429.92, -4833.72, -4294.42, -4429.17, 0.000, 0.000, 0.000, 15:34:01.320
103, -4423.02, -4828.48, -4294.89, -4455.40, 0.000, 0.000, 0.000, 15:34:01.320
104, -4437.97, -4841.09, -4229.67, -4453.97, 0.000, 0.000, 0.000, 15:34:01.320
105, -4456.33, -4852.41, -4331.20, -4495.54, 0.000, 0.000, 0.000, 15:34:01.321
106, -4422.78, -4840.23, -4291.16, -4421.74, 0.000, 0.000, 0.000, 15:34:01.321
107, -4415.60, -4841.37, -4269.67, -4431.83, 0.000, 0.000, 0.000, 15:34:01.321
108, -4428.10, -4845.78, -4303.85, -4458.60, 0.000, 0.000, 0.000, 15:34:01.321
109, -4424.11, -4845.47, -4305.13, -4510.65, 0.000, 0.000, 0.000, 15:34:01.328
110, -4425.86, -4844.63, -4332.09, -4418.28, 0.000, 0.000, 0.000, 15:34:01.328
111, -4436.56, -4856.56, -4310.80, -4446.53, 0.000, 0.000, 0.000, 15:34:01.342
112, -4443.18, -4847.73, -4293.64, -4448.18, 0.000, 0.000, 0.000, 15:34:01.343
113, -4436.08, -4863.34, -4328.59, -4498.26, 0.000, 0.000, 0.000, 15:34:01.343
114, -4458.22, -4872.55, -4297.59, -4450.32, 0.000, 0.000, 0.000, 15:34:01.343
115, -4449.92, -4862.20, -4253.02, -4485.48, 0.000, 0.000, 0.000, 15:34:01.405
116, -4431.43, -4850.42, -4289.98, -4453.72, 0.000, 0.000, 0.000, 15:34:01.406
117, -4434.20, -4848.09, -4375.90, -4439.25, 0.000, 0.000, 0.000, 15:34:01.406
118, -4413.74, -4837.58, -4266.34, -4476.53, 0.000, 0.000, 0.000, 15:34:01.406
119, -4421.74, -4841.62, -4325.15, -4469.13, 0.000, 0.000, 0.000, 15:34:01.406
120, -4443.27, -4865.68, -4324.65, -4472.60, 0.000, 0.000, 0.000, 15:34:01.406
121, -4440.79, -4869.81, -4353.15, -4536.58, 0.000, 0.000, 0.000, 15:34:01.407
122, -4418.12, -4859.91, -4301.07, -4474.77, 0.000, 0.000, 0.000, 15:34:01.407
123, -4418.21, -4844.43, -4291.46, -4464.68, 0.000, 0.000, 0.000, 15:34:01.410
124, -4405.56, -4837.51, -4257.58, -4468.45, 0.000, 0.000, 0.000, 15:34:01.411
125, -4407.53, -4838.92, -4308.49, -4512.63, 0.000, 0.000, 0.000, 15:34:01.411
126, -4427.08, -4859.43, -4305.68, -4481.84, 0.000, 0.000, 0.000, 15:34:01.411
127, -4414.77, -4863.94, -4300.58, -4493.94, 0.000, 0.000, 0.000, 15:34:01.433
128, -4428.25, -4865.50, -4337.37, -4508.52, 0.000, 0.000, 0.000, 15:34:01.434
129, -4456.20, -4882.79, -4317.26, -4508.69, 0.000, 0.000, 0.000, 15:34:01.434
130, -4438.42, -4875.98, -4381.53, -4485.24, 0.000, 0.000, 0.000, 15:34:01.434
131, -4428.37, -4869.58, -4356.86, -4439.91, 0.000, 0.000, 0.000, 15:34:01.435
132, -4431.59, -4852.82, -4340.80, -4479.50, 0.000, 0.000, 0.000, 15:34:01.435
133, -4422.99, -4858.44, -4338.66, -4403.48, 0.000, 0.000, 0.000, 15:34:01.447
134, -4421.78, -4858.48, -4323.91, -4379.79, 0.000, 0.000, 0.000, 15:34:01.448
135, -4433.35, -4875.76, -4342.52, -4379.11, 0.000, 0.000, 0.000, 15:34:01.466
136, -4456.35, -4883.53, -4354.79, -4476.74, 0.000, 0.000, 0.000, 15:34:01.466
137, -4447.19, -4885.62, -4313.60, -4488.67, 0.000, 0.000, 0.000, 15:34:01.466
138, -4428.27, -4856.37, -4293.64, -4440.89, 0.000, 0.000, 0.000, 15:34:01.466
139, -4408.23, -4835.72, -4289.27, -4464.45, 0.000, 0.000, 0.000, 15:34:01.477
140, -4410.31, -4834.35, -4236.37, -4439.39, 0.000, 0.000, 0.000, 15:34:01.478
141, -4401.25, -4842.19, -4337.62, -4488.41, 0.000, 0.000, 0.000, 15:34:01.529
142, -4409.15, -4851.11, -4341.78, -4501.29, 0.000, 0.000, 0.000, 15:34:01.529
143, -4424.57, -4865.70, -4289.29, -4455.18, 0.000, 0.000, 0.000, 15:34:01.530
144, -4417.81, -4870.78, -4310.83, -4496.47, 0.000, 0.000, 0.000, 15:34:01.530
145, -4431.59, -4864.37, -4321.17, -4492.90, 0.000, 0.000, 0.000, 15:34:01.530
146, -4422.88, -4864.64, -4308.49, -4471.78, 0.000, 0.000, 0.000, 15:34:01.530
147, -4422.50, -4853.38, -4257.92, -4471.22, 0.000, 0.000, 0.000, 15:34:01.531
148, -4427.65, -4859.46, -4295.91, -4443.40, 0.000, 0.000, 0.000, 15:34:01.531
149, -4421.34, -4862.66, -4302.87, -4487.70, 0.000, 0.000, 0.000, 15:34:01.531
150, -4443.49, -4864.47, -4355.00, -4506.21, 0.000, 0.000, 0.000, 15:34:01.531
151, -4428.98, -4859.27, -4340.59, -4470.64, 0.000, 0.000, 0.000, 15:34:01.537
152, -4422.77, -4858.72, -4316.50, -4471.68, 0.000, 0.000, 0.000, 15:34:01.538
153, -4420.47, -4856.29, -4329.33, -4485.96, 0.000, 0.000, 0.000, 15:34:01.552
154, -4417.63, -4862.44, -4311.06, -4453.53, 0.000, 0.000, 0.000, 15:34:01.553
155, -4393.88, -4842.86, -4311.61, -4483.19, 0.000, 0.000, 0.000, 15:34:01.553
156, -4412.44, -4854.36, -4333.03, -4464.65, 0.000, 0.000, 0.000, 15:34:01.553
157, -4415.54, -4853.85, -4300.98, -4477.54, 0.000, 0.000, 0.000, 15:34:01.609
158, -4410.83, -4850.38, -4214.62, -4446.05, 0.000, 0.000, 0.000, 15:34:01.610
159, -4411.35, -4852.63, -4311.73, -4445.89, 0.000, 0.000, 0.000, 15:34:01.610
160, -4413.06, -4853.65, -4297.23, -4454.84, 0.000, 0.000, 0.000, 15:34:01.610
161, -4408.35, -4845.09, -4306.62, -4436.46, 0.000, 0.000, 0.000, 15:34:01.610
162, -4391.33, -4846.08, -4298.02, -4423.08, 0.000, 0.000, 0.000, 15:34:01.610
163, -4404.74, -4841.59, -4308.29, -4423.36, 0.000, 0.000, 0.000, 15:34:01.611
164, -4404.47, -4853.70, -4329.36, -4485.45, 0.000, 0.000, 0.000, 15:34:01.611
165, -4406.03, -4859.11, -4270.78, -4429.55, 0.000, 0.000, 0.000, 15:34:01.612
166, -4419.64, -4857.18, -4310.03, -4428.95, 0.000, 0.000, 0.000, 15:34:01.613
167, -4402.20, -4847.39, -4288.25, -4505.87, 0.000, 0.000, 0.000, 15:34:01.613
168, -4399.44, -4849.76, -4300.96, -4420.17, 0.000, 0.000, 0.000, 15:34:01.613
169, -4399.90, -4851.20, -4280.81, -4484.09, 0.000, 0.000, 0.000, 15:34:01.679
170, -4410.00, -4851.47, -4318.56, -4482.96, 0.000, 0.000, 0.000, 15:34:01.680
171, -4415.41, -4845.52, -4276.05, -4465.81, 0.000, 0.000, 0.000, 15:34:01.680
172, -4415.44, -4858.14, -4286.68, -4431.47, 0.000, 0.000, 0.000, 15:34:01.680
173, -4420.25, -4863.43, -4308.73, -4458.49, 0.000, 0.000, 0.000, 15:34:01.680
174, -4413.04, -4858.18, -4316.64, -4483.60, 0.000, 0.000, 0.000, 15:34:01.681
175, -4410.19, -4853.49, -4301.86, -4396.54, 0.000, 0.000, 0.000, 15:34:01.681
176, -4416.23, -4856.05, -4344.07, -4482.18, 0.000, 0.000, 0.000, 15:34:01.682
177, -4434.74, -4881.65, -4332.98, -4499.29, 0.000, 0.000, 0.000, 15:34:01.682
178, -4421.58, -4871.49, -4273.97, -4514.87, 0.000, 0.000, 0.000, 15:34:01.683
179, -4420.46, -4850.47, -4301.54, -4477.82, 0.000, 0.000, 0.000, 15:34:01.683
180, -4424.80, -4858.88, -4298.91, -4527.01, 0.000, 0.000, 0.000, 15:34:01.683
181, -4418.76, -4869.10, -4336.64, -4512.52, 0.000, 0.000, 0.000, 15:34:01.693
182, -4417.49, -4856.69, -4334.54, -4464.44, 0.000, 0.000, 0.000, 15:34:01.694
183, -4411.36, -4843.41, -4307.20, -4408.88, 0.000, 0.000, 0.000, 15:34:01.727
184, -4404.37, -4853.57, -4261.76, -4486.11, 0.000, 0.000, 0.000, 15:34:01.728
185, -4422.54, -4854.65, -4313.47, -4448.75, 0.000, 0.000, 0.000, 15:34:01.728
186, -4404.79, -4838.48, -4307.47, -4458.28, 0.000, 0.000, 0.000, 15:34:01.728
187, -4395.09, -4839.66, -4280.30, -4428.07, 0.000, 0.000, 0.000, 15:34:01.729
188, -4409.65, -4854.12, -4309.60, -4427.36, 0.000, 0.000, 0.000, 15:34:01.729
189, -4411.13, -4848.76, -4315.92, -4446.29, 0.000, 0.000, 0.000, 15:34:01.766
190, -4403.41, -4849.81, -4250.54, -4451.25, 0.000, 0.000, 0.000, 15:34:01.766
191, -4418.64, -4854.57, -4334.99, -4449.67, 0.000, 0.000, 0.000, 15:34:01.767
192, -4409.92, -4848.41, -4324.97, -4485.68, 0.000, 0.000, 0.000, 15:34:01.767
193, -4427.56, -4860.87, -4323.69, -4477.60, 0.000, 0.000, 0.000, 15:34:01.767
194, -4422.39, -4854.77, -4314.92, -4483.39, 0.000, 0.000, 0.000, 15:34:01.767
195, -4402.62, -4838.93, -4317.16, -4427.36, 0.000, 0.000, 0.000, 15:34:01.767
196, -4404.00, -4837.07, -4297.65, -4433.15, 0.000, 0.000, 0.000, 15:34:01.768
197, -4416.51, -4835.20, -4330.13, -4453.37, 0.000, 0.000, 0.000, 15:34:01.768
198, -4412.75, -4840.17, -4317.30, -4461.37, 0.000, 0.000, 0.000, 15:34:01.768
199, -4414.44, -4836.96, -4301.14, -4497.03, 0.000, 0.000, 0.000, 15:34:01.790
200, -4411.49, -4826.32, -4310.88, -4407.54, 0.000, 0.000, 0.000, 15:34:01.790
0, -4398.85, -4831.81, -4294.66, -4439.85, 0.000, 0.000, 0.000, 15:34:01.790
1, -4397.75, -4824.85, -4268.88, -4415.73, 0.000, 0.000, 0.000, 15:34:01.830
2, -4378.03, -4814.43, -4255.99, -4330.13, 0.000, 0.000, 0.000, 15:34:01.833
3, -4397.97, -4822.11, -4277.37, -4450.08, 0.000, 0.000, 0.000, 15:34:01.834
4, -4411.47, -4845.74, -4309.25, -4467.88, 0.000, 0.000, 0.000, 15:34:01.851
5, -4426.61, -4862.96, -4308.32, -4525.27, 0.000, 0.000, 0.000, 15:34:01.852
6, -4427.97, -4862.01, -4307.16, -4496.42, 0.000, 0.000, 0.000, 15:34:01.852
7, -4436.35, -4869.33, -4300.55, -4453.89, 0.000, 0.000, 0.000, 15:34:01.864
8, -4430.50, -4867.04, -4316.37, -4511.40, 0.000, 0.000, 0.000, 15:34:01.865
9, -4433.40, -4860.29, -4342.58, -4505.15, 0.000, 0.000, 0.000, 15:34:01.865
10, -4416.67, -4842.32, -4269.56, -4478.19, 0.000, 0.000, 0.000, 15:34:01.865
11, -4447.77, -4870.73, -4354.31, -4483.78, 0.000, 0.000, 0.000, 15:34:01.865
12, -4441.92, -4876.64, -4398.73, -4477.11, 0.000, 0.000, 0.000, 15:34:01.866
13, -4445.56, -4873.83, -4334.13, -4520.54, 0.000, 0.000, 0.000, 15:34:01.866
14, -4425.72, -4855.89, -4272.04, -4382.78, 0.000, 0.000, 0.000, 15:34:01.866
15, -4424.01, -4848.15, -4296.75, -4405.08, 0.000, 0.000, 0.000, 15:34:01.867
16, -4422.63, -4850.41, -4286.61, -4490.47, 0.000, 0.000, 0.000, 15:34:01.867
17, -4402.72, -4835.89, -4318.96, -4460.80, 0.000, 0.000, 0.000, 15:34:01.868
18, -4400.92, -4837.06, -4307.46, -4460.79, 0.000, 0.000, 0.000, 15:34:01.868
19, -4402.83, -4839.87, -4306.04, -4417.58, 0.000, 0.000, 0.000, 15:34:01.942
20, -4412.37, -4858.81, -4300.31, -4478.62, 0.000, 0.000, 0.000, 15:34:01.942
21, -4423.90, -4865.33, -4305.18, -4477.92, 0.000, 0.000, 0.000, 15:34:01.942
22, -4426.00, -4849.66, -4313.83, -4429.07, 0.000, 0.000, 0.000, 15:34:01.942
23, -4429.31, -4853.66, -4273.97, -4480.71, 0.000, 0.000, 0.000, 15:34:01.943
24, -4422.60, -4854.89, -4325.05, -4469.25, 0.000, 0.000, 0.000, 15:34:01.943
25, -4439.27, -4852.41, -4288.05, -4471.82, 0.000, 0.000, 0.000, 15:34:01.943
26, -4431.22, -4852.46, -4346.41, -4444.78, 0.000, 0.000, 0.000, 15:34:01.943
27, -4436.99, -4863.92, -4300.18, -4409.05, 0.000, 0.000, 0.000, 15:34:01.943
28, -4448.61, -4870.19, -4348.35, -4419.39, 0.000, 0.000, 0.000, 15:34:01.944
29, -4438.10, -4855.98, -4309.97, -4470.04, 0.000, 0.000, 0.000, 15:34:01.944
30, -4443.11, -4857.02, -4323.99, -4461.66, 0.000, 0.000, 0.000, 15:34:01.944
31, -4425.62, -4852.43, -4317.47, -4410.37, 0.000, 0.000, 0.000, 15:34:01.944
32, -4445.95, -4865.31, -4303.50, -4469.12, 0.000, 0.000, 0.000, 15:34:01.944
33, -4425.09, -4843.17, -4253.00, -4385.99, 0.000, 0.000, 0.000, 15:34:01.986
34, -4403.78, -4838.37, -4286.49, -4455.57, 0.000, 0.000, 0.000, 15:34:02.008
35, -4414.19, -4830.23, -4293.64, -4484.34, 0.000, 0.000, 0.000, 15:34:02.008
36, -4423.57, -4841.97, -4305.60, -4490.27, 0.000, 0.000, 0.000, 15:34:02.008
37, -4426.26, -4840.87, -4305.73, -4450.67, 0.000, 0.000, 0.000, 15:34:02.008
38, -4421.90, -4838.67, -4305.89, -4441.30, 0.000, 0.000, 0.000, 15:34:02.008
39, -4434.26, -4851.53, -4343.72, -4370.24, 0.000, 0.000, 0.000, 15:34:02.009
40, -4453.92, -4869.28, -4318.02, -4475.47, 0.000, 0.000, 0.000, 15:34:02.009
41, -4452.15, -4871.88, -4371.81, -4481.53, 0.000, 0.000, 0.000, 15:34:02.009
42, -4438.04, -4870.31, -4329.52, -4497.67, 0.000, 0.000, 0.000, 15:34:02.009
43, -4432.64, -4861.12, -4325.49, -4437.21, 0.000, 0.000, 0.000, 15:34:02.009
44, -4454.59, -4870.03, -4328.38, -4479.64, 0.000, 0.000, 0.000, 15:34:02.010
45, -4434.00, -4854.57, -4308.04, -4474.11, 0.000, 0.000, 0.000, 15:34:02.021
46, -4422.25, -4839.13, -4295.64, -4438.28, 0.000, 0.000, 0.000, 15:34:02.021
47, -4442.23, -4857.47, -4305.13, -4416.39, 0.000, 0.000, 0.000, 15:34:02.022
48, -4431.38, -4860.63, -4328.87, -4490.30, 0.000, 0.000, 0.000, 15:34:02.022
49, -4444.87, -4862.81, -4312.18, -4494.79, 0.000, 0.000, 0.000, 15:34:02.032
50, -4415.82, -4846.85, -4309.62, -4417.51, 0.000, 0.000, 0.000, 15:34:02.033
51, -4423.86, -4857.70, -4339.88, -4488.57, 0.000, 0.000, 0.000, 15:34:02.047
52, -4438.38, -4867.25, -4329.25, -4428.47, 0.000, 0.000, 0.000, 15:34:02.048
53, -4426.85, -4851.44, -4324.25, -4484.90, 0.000, 0.000, 0.000, 15:34:02.048
54, -4415.41, -4839.83, -4306.77, -4476.73, 0.000, 0.000, 0.000, 15:34:02.055
55, -4416.86, -4846.45, -4300.19, -4412.92, 0.000, 0.000, 0.000, 15:34:02.066
56, -4427.45, -4858.19, -4273.24, -4456.02, 0.000, 0.000, 0.000, 15:34:02.070
57, -4443.26, -4868.42, -4333.42, -4597.49, 0.000, 0.000, 0.000, 15:34:02.078
58, -4456.93, -4861.03, -4304.30, -4479.21, 0.000, 0.000, 0.000, 15:34:02.078
59, -4441.53, -4869.03, -4284.07, -4525.04, 0.000, 0.000, 0.000, 15:34:02.079
60, -4456.94, -4872.94, -4293.18, -4495.75, 0.000, 0.000, 0.000, 15:34:02.079
61, -4440.19, -4866.10, -4315.80, -4422.00, 0.000, 0.000, 0.000, 15:34:02.107
62, -4438.20, -4861.64, -4295.10, -4522.62, 0.000, 0.000, 0.000, 15:34:02.108
63, -4442.39, -4866.02, -4264.23, -4522.81, 0.000, 0.000, 0.000, 15:34:02.108
64, -4459.71, -4881.82, -4348.49, -4542.78, 0.000, 0.000, 0.000, 15:34:02.108
65, -4449.20, -4875.84, -4320.58, -4448.75, 0.000, 0.000, 0.000, 15:34:02.108
66, -4453.87, -4876.59, -4318.05, -4488.64, 0.000, 0.000, 0.000, 15:34:02.108
67, -4448.71, -4867.77, -4326.08, -4445.17, 0.000, 0.000, 0.000, 15:34:02.122
68, -4436.20, -4871.67, -4369.53, -4458.43, 0.000, 0.000, 0.000, 15:34:02.124
69, -4412.55, -4840.34, -4301.64, -4473.06, 0.000, 0.000, 0.000, 15:34:02.139
70, -4425.60, -4851.73, -4294.97, -4484.27, 0.000, 0.000, 0.000, 15:34:02.140
71, -4419.94, -4845.87, -4310.06, -4439.03, 0.000, 0.000, 0.000, 15:34:02.140
72, -4417.72, -4845.97, -4322.49, -4486.72, 0.000, 0.000, 0.000, 15:34:02.141
73, -4432.14, -4843.13, -4299.60, -4452.05, 0.000, 0.000, 0.000, 15:34:02.162
74, -4425.90, -4850.19, -4304.74, -4483.23, 0.000, 0.000, 0.000, 15:34:02.162
75, -4442.96, -4854.30, -4339.83, -4465.42, 0.000, 0.000, 0.000, 15:34:02.167
76, -4433.44, -4853.88, -4348.56, -4485.90, 0.000, 0.000, 0.000, 15:34:02.168
77, -4433.94, -4856.34, -4325.57, -4493.59, 0.000, 0.000, 0.000, 15:34:02.168
78, -4428.68, -4828.76, -4303.49, -4432.13, 0.000, 0.000, 0.000, 15:34:02.168
79, -4420.41, -4822.71, -4272.13, -4439.00, 0.000, 0.000, 0.000, 15:34:02.242
80, -4419.96, -4835.78, -4341.28, -4444.09, 0.000, 0.000, 0.000, 15:34:02.243
81, -4432.44, -4831.11, -4315.96, -4425.20, 0.000, 0.000, 0.000, 15:34:02.243
82, -4406.61, -4817.19, -4255.48, -4405.58, 0.000, 0.000, 0.000, 15:34:02.243
83, -4427.71, -4834.85, -4277.63, -4465.00, 0.000, 0.000, 0.000, 15:34:02.243
84, -4433.43, -4849.67, -4287.92, -4398.57, 0.000, 0.000, 0.000, 15:34:02.243
85, -4427.45, -4841.96, -4330.98, -4413.76, 0.000, 0.000, 0.000, 15:34:02.244
86, -4427.40, -4852.47, -4258.71, -4492.18, 0.000, 0.000, 0.000, 15:34:02.244
87, -4427.81, -4851.61, -4325.22, -4484.64, 0.000, 0.000, 0.000, 15:34:02.244
88, -4440.37, -4857.78, -4276.34, -4466.36, 0.000, 0.000, 0.000, 15:34:02.245
89, -4428.30, -4852.66, -4338.59, -4446.16, 0.000, 0.000, 0.000, 15:34:02.245
90, -4412.89, -4828.61, -4295.63, -4443.78, 0.000, 0.000, 0.000, 15:34:02.271
91, -4409.26, -4822.83, -4284.19, -4526.13, 0.000, 0.000, 0.000, 15:34:02.271
92, -4407.34, -4831.37, -4235.31, -4444.25, 0.000, 0.000, 0.000, 15:34:02.272
93, -4428.44, -4842.39, -4324.59, -4465.40, 0.000, 0.000, 0.000, 15:34:02.272
94, -4425.36, -4843.14, -4310.93, -4400.00, 0.000, 0.000, 0.000, 15:34:02.272
95, -4427.12, -4835.50, -4267.15, -4449.67, 0.000, 0.000, 0.000, 15:34:02.279
96, -4432.22, -4852.47, -4263.26, -4444.31, 0.000, 0.000, 0.000, 15:34:02.279
97, -4427.37, -4834.77, -4276.15, -4460.99, 0.000, 0.000, 0.000, 15:34:02.280
98, -4429.00, -4837.37, -4251.81, -4435.18, 0.000, 0.000, 0.000, 15:34:02.280
99, -4429.13, -4844.14, -4305.11, -4421.33, 0.000, 0.000, 0.000, 15:34:02.288
100, -4443.64, -4856.97, -4299.07, -4470.22, 0.000, 0.000, 0.000, 15:34:02.288
101, -4437.26, -4856.07, -4287.86, -4441.25, 0.000, 0.000, 0.000, 15:34:02.288
102, -4430.47, -4849.03, -4358.00, -4444.55, 0.000, 0.000, 0.000, 15:34:02.288
103, -4454.49, -4863.81, -4363.13, -4495.39, 0.000, 0.000, 0.000, 15:34:02.302
104, -4423.26, -4856.14, -4307.36, -4400.89, 0.000, 0.000, 0.000, 15:34:02.303
105, -4416.29, -4843.04, -4248.63, -4391.06, 0.000, 0.000, 0.000, 15:34:02.317
106, -4416.30, -4848.29, -4337.43, -4437.90, 0.000, 0.000, 0.000, 15:34:02.320
107, -4429.94, -4836.15, -4281.75, -4456.00, 0.000, 0.000, 0.000, 15:34:02.364
108, -4436.69, -4853.28, -4323.42, -4450.21, 0.000, 0.000, 0.000, 15:34:02.365
109, -4407.66, -4825.33, -4281.37, -4449.36, 0.000, 0.000, 0.000, 15:34:02.398
110, -4406.33, -4819.63, -4249.70, -4444.09, 0.000, 0.000, 0.000, 15:34:02.398
111, -4409.38, -4822.58, -4315.15, -4459.72, 0.000, 0.000, 0.000, 15:34:02.398
112, -4417.05, -4830.99, -4313.93, -4490.47, 0.000, 0.000, 0.000, 15:34:02.398
113, -4439.90, -4843.89, -4308.15, -4468.92, 0.000, 0.000, 0.000, 15:34:02.398
114, -4432.45, -4848.49, -4346.01, -4424.43, 0.000, 0.000, 0.000, 15:34:02.399
115, -4449.79, -4865.35, -4358.53, -4460.06, 0.000, 0.000, 0.000, 15:34:02.399
116, -4462.61, -4878.32, -4342.91, -4514.85, 0.000, 0.000, 0.000, 15:34:02.399
117, -4455.64, -4876.62, -4322.49, -4516.94, 0.000, 0.000, 0.000, 15:34:02.399
118, -4430.99, -4861.66, -4318.08, -4464.90, 0.000, 0.000, 0.000, 15:34:02.399
119, -4435.60, -4862.06, -4319.55, -4505.07, 0.000, 0.000, 0.000, 15:34:02.419
120, -4444.41, -4870.63, -4361.31, -4499.75, 0.000, 0.000, 0.000, 15:34:02.419
121, -4451.12, -4880.23, -4351.20, -4481.40, 0.000, 0.000, 0.000, 15:34:02.419
122, -4446.54, -4862.34, -4311.86, -4499.15, 0.000, 0.000, 0.000, 15:34:02.420
123, -4447.22, -4870.10, -4319.59, -4521.40, 0.000, 0.000, 0.000, 15:34:02.420
124, -4446.99, -4873.92, -4352.36, -4512.98, 0.000, 0.000, 0.000, 15:34:02.420
125, -4435.56, -4859.66, -4264.04, -4483.44, 0.000, 0.000, 0.000, 15:34:02.420
126, -4424.01, -4842.53, -4254.47, -4476.37, 0.000, 0.000, 0.000, 15:34:02.420
127, -4457.42, -4859.91, -4262.53, -4457.67, 0.000, 0.000, 0.000, 15:34:02.422
128, -4440.69, -4861.21, -4288.72, -4476.40, 0.000, 0.000, 0.000, 15:34:02.423
129, -4440.79, -4846.15, -4309.38, -4470.63, 0.000, 0.000, 0.000, 15:34:02.465
130, -4428.33, -4855.81, -4307.03, -4467.85, 0.000, 0.000, 0.000, 15:34:02.466
131, -4441.65, -4868.73, -4306.62, -4470.73, 0.000, 0.000, 0.000, 15:34:02.482
132, -4447.10, -4878.26, -4319.78, -4446.65, 0.000, 0.000, 0.000, 15:34:02.483
133, -4456.93, -4881.95, -4336.96, -4448.27, 0.000, 0.000, 0.000, 15:34:02.483
134, -4442.90, -4866.97, -4338.33, -4488.13, 0.000, 0.000, 0.000, 15:34:02.483
135, -4447.64, -4874.54, -4310.56, -4471.21, 0.000, 0.000, 0.000, 15:34:02.483
136, -4458.87, -4876.27, -4307.38, -4454.20, 0.000, 0.000, 0.000, 15:34:02.483
137, -4444.53, -4861.18, -4326.91, -4418.84, 0.000, 0.000, 0.000, 15:34:02.483
138, -4429.02, -4862.95, -4311.65, -4458.17, 0.000, 0.000, 0.000, 15:34:02.484
139, -4421.94, -4846.06, -4286.35, -4470.19, 0.000, 0.000, 0.000, 15:34:02.484
140, -4429.37, -4841.40, -4316.96, -4499.03, 0.000, 0.000, 0.000, 15:34:02.484
141, -4420.16, -4839.33, -4328.17, -4367.00, 0.000, 0.000, 0.000, 15:34:02.501
142, -4417.09, -4834.14, -4285.67, -4428.52, 0.000, 0.000, 0.000, 15:34:02.502
143, -4416.96, -4840.58, -4340.28, -4471.87, 0.000, 0.000, 0.000, 15:34:02.505
144, -4417.18, -4838.64, -4238.91, -4445.80, 0.000, 0.000, 0.000, 15:34:02.505
145, -4431.02, -4853.85, -4292.27, -4474.85, 0.000, 0.000, 0.000, 15:34:02.513
146, -4419.69, -4850.65, -4338.63, -4479.13, 0.000, 0.000, 0.000, 15:34:02.516
147, -4427.79, -4850.90, -4263.04, -4471.81, 0.000, 0.000, 0.000, 15:34:02.542
148, -4454.92, -4861.74, -4308.41, -4488.72, 0.000, 0.000, 0.000, 15:34:02.543
149, -4432.67, -4848.87, -4297.76, -4473.68, 0.000, 0.000, 0.000, 15:34:02.543
150, -4423.25, -4847.23, -4259.46, -4447.60, 0.000, 0.000, 0.000, 15:34:02.551
151, -4441.54, -4851.52, -4351.61, -4446.40, 0.000, 0.000, 0.000, 15:34:02.551
152, -4442.52, -4867.03, -4305.37, -4468.95, 0.000, 0.000, 0.000, 15:34:02.551
153, -4435.76, -4864.21, -4291.04, -4518.68, 0.000, 0.000, 0.000, 15:34:02.551
154, -4440.74, -4851.90, -4308.47, -4429.50, 0.000, 0.000, 0.000, 15:34:02.551
155, -4446.75, -4854.40, -4352.39, -4471.29, 0.000, 0.000, 0.000, 15:34:02.557
156, -4424.20, -4860.90, -4374.34, -4450.88, 0.000, 0.000, 0.000, 15:34:02.558
157, -4430.65, -4852.25, -4359.92, -4476.01, 0.000, 0.000, 0.000, 15:34:02.593
158, -4441.79, -4843.24, -4325.35, -4479.32, 0.000, 0.000, 0.000, 15:34:02.593
159, -4419.36, -4841.12, -4292.21, -4453.88, 0.000, 0.000, 0.000, 15:34:02.596
160, -4436.94, -4859.95, -4273.52, -4481.33, 0.000, 0.000, 0.000, 15:34:02.597
161, -4434.35, -4867.31, -4273.34, -4490.27, 0.000, 0.000, 0.000, 15:34:02.597
162, -4447.53, -4861.30, -4343.84, -4441.96, 0.000, 0.000, 0.000, 15:34:02.597
163, -4436.45, -4848.42, -4322.71, -4437.87, 0.000, 0.000, 0.000, 15:34:02.602
164, -4434.23, -4861.62, -4343.54, -4508.70, 0.000, 0.000, 0.000, 15:34:02.603
165, -4445.69, -4869.41, -4341.75, -4476.93, 0.000, 0.000, 0.000, 15:34:02.621
166, -4440.04, -4878.81, -4309.30, -4480.49, 0.000, 0.000, 0.000, 15:34:02.621
167, -4463.49, -4875.71, -4357.12, -4489.29, 0.000, 0.000, 0.000, 15:34:02.621
168, -4439.84, -4867.42, -4329.38, -4482.80, 0.000, 0.000, 0.000, 15:34:02.621
169, -4449.23, -4856.16, -4319.51, -4484.70, 0.000, 0.000, 0.000, 15:34:02.633
170, -4426.22, -4851.67, -4336.88, -4485.59, 0.000, 0.000, 0.000, 15:34:02.633
171, -4421.11, -4834.50, -4286.63, -4456.72, 0.000, 0.000, 0.000, 15:34:02.647
172, -4420.78, -4848.74, -4319.92, -4473.57, 0.000, 0.000, 0.000, 15:34:02.648
173, -4419.84, -4849.16, -4306.64, -4460.17, 0.000, 0.000, 0.000, 15:34:02.648
174, -4411.38, -4846.73, -4264.44, -4458.57, 0.000, 0.000, 0.000, 15:34:02.648
175, -4416.35, -4830.25, -4277.62, -4443.14, 0.000, 0.000, 0.000, 15:34:02.699
176, -4434.20, -4846.70, -4317.47, -4460.06, 0.000, 0.000, 0.000, 15:34:02.699
177, -4441.29, -4854.65, -4300.08, -4491.10, 0.000, 0.000, 0.000, 15:34:02.699
178, -4439.32, -4849.74, -4296.63, -4488.29, 0.000, 0.000, 0.000, 15:34:02.699
179, -4446.56, -4857.98, -4311.49, -4448.98, 0.000, 0.000, 0.000, 15:34:02.699
180, -4449.79, -4872.15, -4348.88, -4473.03, 0.000, 0.000, 0.000, 15:34:02.700
181, -4445.59, -4872.68, -4350.20, -4498.19, 0.000, 0.000, 0.000, 15:34:02.700
182, -4439.98, -4869.09, -4342.26, -4454.94, 0.000, 0.000, 0.000, 15:34:02.700
183, -4440.37, -4857.13, -4311.87, -4448.33, 0.000, 0.000, 0.000, 15:34:02.708
184, -4431.24, -4856.95, -4307.14, -4495.66, 0.000, 0.000, 0.000, 15:34:02.708
185, -4433.08, -4848.53, -4311.83, -4434.02, 0.000, 0.000, 0.000, 15:34:02.708
186, -4408.92, -4841.41, -4330.08, -4485.87, 0.000, 0.000, 0.000, 15:34:02.708
187, -4425.99, -4843.35, -4327.28, -4448.18, 0.000, 0.000, 0.000, 15:34:02.731
188, -4428.73, -4848.19, -4299.78, -4453.80, 0.000, 0.000, 0.000, 15:34:02.731
189, -4426.25, -4836.53, -4318.16, -4454.92, 0.000, 0.000, 0.000, 15:34:02.755
190, -4440.87, -4842.44, -4321.09, -4464.43, 0.000, 0.000, 0.000, 15:34:02.758
191, -4425.05, -4848.23, -4269.18, -4488.02, 0.000, 0.000, 0.000, 15:34:02.758
192, -4432.40, -4859.58, -4295.53, -4455.09, 0.000, 0.000, 0.000, 15:34:02.758
193, -4432.43, -4862.90, -4319.23, -4460.50, 0.000, 0.000, 0.000, 15:34:02.759
194, -4437.97, -4864.67, -4289.78, -4393.51, 0.000, 0.000, 0.000, 15:34:02.759
195, -4456.62, -4868.25, -4291.74, -4478.84, 0.000, 0.000, 0.000, 15:34:02.759
196, -4442.20, -4875.51, -4276.32, -4468.58, 0.000, 0.000, 0.000, 15:34:02.759
197, -4431.37, -4853.59, -4315.86, -4448.53, 0.000, 0.000, 0.000, 15:34:02.857
198, -4423.93, -4844.52, -4299.24, -4519.96, 0.000, 0.000, 0.000, 15:34:02.857
199, -4415.81, -4843.21, -4266.08, -4456.20, 0.000, 0.000, 0.000, 15:34:02.857
200, -4431.86, -4858.95, -4338.84, -4462.39, 0.000, 0.000, 0.000, 15:34:02.858
0, -4450.48, -4850.58, -4323.31, -4473.84, 0.000, 0.000, 0.000, 15:34:02.858
1, -4425.57, -4848.20, -4304.40, -4447.75, 0.000, 0.000, 0.000, 15:34:02.858
2, -4427.51, -4843.50, -4271.55, -4456.56, 0.000, 0.000, 0.000, 15:34:02.858
3, -4452.78, -4865.02, -4299.67, -4465.76, 0.000, 0.000, 0.000, 15:34:02.858
4, -4435.15, -4861.67, -4311.86, -4503.02, 0.000, 0.000, 0.000, 15:34:02.858
5, -4405.17, -4836.52, -4283.26, -4483.35, 0.000, 0.000, 0.000, 15:34:02.859
6, -4440.36, -4847.16, -4300.93, -4416.12, 0.000, 0.000, 0.000, 15:34:02.859
7, -4427.69, -4851.20, -4320.25, -4456.36, 0.000, 0.000, 0.000, 15:34:02.859
8, -4433.02, -4862.66, -4325.88, -4492.25, 0.000, 0.000, 0.000, 15:34:02.859
9, -4427.59, -4857.86, -4311.56, -4448.15, 0.000, 0.000, 0.000, 15:34:02.859
10, -4436.21, -4867.62, -4310.41, -4512.51, 0.000, 0.000, 0.000, 15:34:02.859
11, -4451.09, -4868.22, -4304.55, -4475.33, 0.000, 0.000, 0.000, 15:34:02.860
12, -4453.79, -4876.50, -4333.03, -4504.52, 0.000, 0.000, 0.000, 15:34:02.860
13, -4439.46, -4865.01, -4300.14, -4487.20, 0.000, 0.000, 0.000, 15:34:02.860
14, -4438.52, -4866.08, -4315.72, -4452.70, 0.000, 0.000, 0.000, 15:34:02.860
15, -4433.80, -4847.32, -4351.50, -4462.12, 0.000, 0.000, 0.000, 15:34:02.904
16, -4436.35, -4851.03, -4329.15, -4545.98, 0.000, 0.000, 0.000, 15:34:02.904
17, -4433.11, -4848.73, -4315.64, -4425.22, 0.000, 0.000, 0.000, 15:34:02.905
18, -4441.86, -4861.93, -4310.18, -4442.89, 0.000, 0.000, 0.000, 15:34:02.905
19, -4453.82, -4860.26, -4321.88, -4489.52, 0.000, 0.000, 0.000, 15:34:02.905
20, -4438.99, -4857.95, -4321.20, -4421.38, 0.000, 0.000, 0.000, 15:34:02.905
21, -4431.32, -4862.39, -4313.69, -4461.63, 0.000, 0.000, 0.000, 15:34:02.905
22, -4430.09, -4852.55, -4325.95, -4497.90, 0.000, 0.000, 0.000, 15:34:02.905
23, -4430.62, -4854.44, -4337.42, -4494.65, 0.000, 0.000, 0.000, 15:34:02.905
24, -4429.94, -4849.66, -4307.74, -4433.29, 0.000, 0.000, 0.000, 15:34:02.906
25, -4428.72, -4859.98, -4310.16, -4377.58, 0.000, 0.000, 0.000, 15:34:02.935
26, -4428.93, -4851.78, -4309.47, -4513.00, 0.000, 0.000, 0.000, 15:34:02.935
27, -4439.83, -4865.89, -4318.31, -4429.32, 0.000, 0.000, 0.000, 15:34:02.963
28, -4430.33, -4861.77, -4294.63, -4518.09, 0.000, 0.000, 0.000, 15:34:02.964
29, -4449.21, -4863.45, -4353.25, -4479.06, 0.000, 0.000, 0.000, 15:34:02.964
30, -4441.75, -4846.69, -4279.78, -4496.09, 0.000, 0.000, 0.000, 15:34:02.964
31, -4431.07, -4847.12, -4286.98, -4425.02, 0.000, 0.000, 0.000, 15:34:02.964
32, -4435.16, -4848.80, -4294.59, -4460.49, 0.000, 0.000, 0.000, 15:34:02.965
33, -4421.38, -4838.15, -4321.21, -4419.49, 0.000, 0.000, 0.000, 15:34:02.965
34, -4428.32, -4843.39, -4320.30, -4442.33, 0.000, 0.000, 0.000, 15:34:02.965
35, -4420.48, -4850.65, -4285.15, -4481.98, 0.000, 0.000, 0.000, 15:34:02.966
36, -4418.89, -4838.00, -4225.14, -4514.71, 0.000, 0.000, 0.000, 15:34:02.966
37, -4433.73, -4839.14, -4331.91, -4415.61, 0.000, 0.000, 0.000, 15:34:02.988
38, -4431.24, -4852.31, -4294.68, -4515.57, 0.000, 0.000, 0.000, 15:34:02.988
39, -4424.42, -4844.14, -4320.92, -4414.71, 0.000, 0.000, 0.000, 15:34:02.993
40, -4429.25, -4848.25, -4285.30, -4423.14, 0.000, 0.000, 0.000, 15:34:02.994
41, -4427.07, -4841.13, -4290.13, -4447.58, 0.000, 0.000, 0.000, 15:34:02.994
42, -4445.67, -4863.87, -4304.23, -4474.48, 0.000, 0.000, 0.000, 15:34:02.994
43, -4444.05, -4859.20, -4256.17, -4488.97, 0.000, 0.000, 0.000, 15:34:03.052
44, -4436.59, -4848.04, -4309.65, -4468.07, 0.000, 0.000, 0.000, 15:34:03.052
45, -4424.67, -4838.78, -4332.29, -4453.69, 0.000, 0.000, 0.000, 15:34:03.053
46, -4443.13, -4847.65, -4301.05, -4505.50, 0.000, 0.000, 0.000, 15:34:03.053
47, -4444.01, -4850.47, -4312.03, -4446.41, 0.000, 0.000, 0.000, 15:34:03.053
48, -4426.85, -4850.35, -4339.48, -4489.75, 0.000, 0.000, 0.000, 15:34:03.053
49, -4426.95, -4849.52, -4334.64, -4481.59, 0.000, 0.000, 0.000, 15:34:03.054
50, -4436.11, -4844.89, -4306.44, -4394.74, 0.000, 0.000, 0.000, 15:34:03.054
51, -4423.16, -4848.54, -4303.96, -4522.74, 0.000, 0.000, 0.000, 15:34:03.054
52, -4415.64, -4837.21, -4281.73, -4447.02, 0.000, 0.000, 0.000, 15:34:03.054
53, -4385.13, -4806.91, -4272.72, -4432.94, 0.000, 0.000, 0.000, 15:34:03.054
54, -4397.44, -4821.66, -4306.72, -4412.41, 0.000, 0.000, 0.000, 15:34:03.055
55, -4418.49, -4839.64, -4278.87, -4433.41, 0.000, 0.000, 0.000, 15:34:03.069
56, -4431.41, -4843.85, -4318.04, -4409.40, 0.000, 0.000, 0.000, 15:34:03.069
57, -4419.83, -4845.12, -4313.73, -4489.77, 0.000, 0.000, 0.000, 15:34:03.091
58, -4437.61, -4857.75, -4293.69, -4501.42, 0.000, 0.000, 0.000, 15:34:03.092
59, -4437.72, -4856.01, -4346.01, -4498.21, 0.000, 0.000, 0.000, 15:34:03.098
60, -4427.88, -4851.70, -4274.23, -4456.78, 0.000, 0.000, 0.000, 15:34:03.099
61, -4427.96, -4850.62, -4317.83, -4494.65, 0.000, 0.000, 0.000, 15:34:03.099
62, -4441.51, -4862.79, -4291.18, -4441.29, 0.000, 0.000, 0.000, 15:34:03.099
63, -4436.38, -4863.85, -4300.00, -4485.75, 0.000, 0.000, 0.000, 15:34:03.119
64, -4453.85, -4866.83, -4328.79, -4521.57, 0.000, 0.000, 0.000, 15:34:03.120
65, -4439.28, -4865.23, -4354.81, -4462.22, 0.000, 0.000, 0.000, 15:34:03.120
66, -4432.91, -4848.69, -4282.88, -4482.57, 0.000, 0.000, 0.000, 15:34:03.120
67, -4423.73, -4848.90, -4324.61, -4427.68, 0.000, 0.000, 0.000, 15:34:03.129
68, -4425.26, -4845.32, -4327.52, -4497.58, 0.000, 0.000, 0.000, 15:34:03.130
69, -4416.22, -4836.31, -4251.98, -4446.76, 0.000, 0.000, 0.000, 15:34:03.143
70, -4429.23, -4838.73, -4274.64, -4444.39, 0.000, 0.000, 0.000, 15:34:03.155
71, -4432.98, -4855.57, -4327.83, -4392.44, 0.000, 0.000, 0.000, 15:34:03.155
72, -4437.37, -4859.58, -4283.91, -4540.97, 0.000, 0.000, 0.000, 15:34:03.155
73, -4415.41, -4842.60, -4258.57, -4373.84, 0.000, 0.000, 0.000, 15:34:03.213
74, -4423.94, -4840.67, -4362.56, -4518.29, 0.000, 0.000, 0.000, 15:34:03.213
75, -4425.01, -4839.07, -4267.60, -4490.59, 0.000, 0.000, 0.000, 15:34:03.214
76, -4418.27, -4844.89, -4332.39, -4447.55, 0.000, 0.000, 0.000, 15:34:03.214
77, -4411.70, -4826.21, -4329.56, -4314.28, 0.000, 0.000, 0.000, 15:34:03.214
78, -4432.79, -4841.66, -4345.66, -4481.76, 0.000, 0.000, 0.000, 15:34:03.215
79, -4452.69, -4858.31, -4301.09, -4518.46, 0.000, 0.000, 0.000, 15:34:03.215
80, -4436.64, -4852.06, -4333.43, -4464.59, 0.000, 0.000, 0.000, 15:34:03.215
81, -4442.69, -4838.75, -4290.55, -4461.48, 0.000, 0.000, 0.000, 15:34:03.215
82, -4425.40, -4840.92, -4284.06, -4557.18, 0.000, 0.000, 0.000, 15:34:03.215
83, -4425.19, -4845.97, -4320.87, -4487.60, 0.000, 0.000, 0.000, 15:34:03.215
84, -4423.52, -4856.28, -4290.96, -4470.07, 0.000, 0.000, 0.000, 15:34:03.215
85, -4416.24, -4844.20, -4337.53, -4482.73, 0.000, 0.000, 0.000, 15:34:03.222
86, -4443.24, -4857.45, -4300.56, -4414.95, 0.000, 0.000, 0.000, 15:34:03.223
87, -4457.40, -4869.85, -4307.18, -4501.04, 0.000, 0.000, 0.000, 15:34:03.233
88, -4438.53, -4857.99, -4297.91, -4494.33, 0.000, 0.000, 0.000, 15:34:03.234
89, -4433.89, -4844.67, -4325.90, -4419.15, 0.000, 0.000, 0.000, 15:34:03.234
90, -4424.75, -4836.32, -4297.50, -4448.13, 0.000, 0.000, 0.000, 15:34:03.234
91, -4428.89, -4847.02, -4287.34, -4515.34, 0.000, 0.000, 0.000, 15:34:03.259
92, -4447.27, -4863.13, -4334.63, -4418.57, 0.000, 0.000, 0.000, 15:34:03.259
93, -4437.06, -4866.85, -4347.55, -4422.90, 0.000, 0.000, 0.000, 15:34:03.263
94, -4431.42, -4858.54, -4335.75, -4525.28, 0.000, 0.000, 0.000, 15:34:03.264
95, -4435.39, -4860.67, -4288.87, -4484.26, 0.000, 0.000, 0.000, 15:34:03.264
96, -4432.60, -4852.14, -4305.86, -4409.92, 0.000, 0.000, 0.000, 15:34:03.264
97, -4423.26, -4845.80, -4320.18, -4479.61, 0.000, 0.000, 0.000, 15:34:03.281
98, -4429.64, -4856.40, -4303.65, -4457.82, 0.000, 0.000, 0.000, 15:34:03.281
99, -4447.59, -4869.32, -4316.30, -4418.76, 0.000, 0.000, 0.000, 15:34:03.364
100, -4454.23, -4869.85, -4314.79, -4384.62, 0.000, 0.000, 0.000, 15:34:03.364
101, -4463.43, -4871.39, -4355.25, -4475.79, 0.000, 0.000, 0.000, 15:34:03.364
102, -4420.37, -4856.26, -4302.15, -4415.16, 0.000, 0.000, 0.000, 15:34:03.364
103, -4436.13, -4849.90, -4311.72, -4576.41, 0.000, 0.000, 0.000, 15:34:03.364
104, -4436.02, -4847.88, -4301.62, -4443.40, 0.000, 0.000, 0.000, 15:34:03.365
105, -4440.94, -4842.62, -4333.50, -4473.08, 0.000, 0.000, 0.000, 15:34:03.365
106, -4430.88, -4846.69, -4334.92, -4450.89, 0.000, 0.000, 0.000, 15:34:03.365
107, -4434.94, -4865.03, -4318.38, -4512.56, 0.000, 0.000, 0.000, 15:34:03.365
108, -4430.62, -4852.20, -4290.20, -4436.56, 0.000, 0.000, 0.000, 15:34:03.365
109, -4427.20, -4850.95, -4297.63, -4529.25, 0.000, 0.000, 0.000, 15:34:03.365
110, -4430.58, -4841.55, -4265.55, -4405.86, 0.000, 0.000, 0.000, 15:34:03.366
111, -4432.86, -4854.97, -4287.59, -4578.51, 0.000, 0.000, 0.000, 15:34:03.370
112, -4430.32, -4844.38, -4312.84, -4437.50, 0.000, 0.000, 0.000, 15:34:03.370
113, -4443.84, -4849.18, -4325.77, -4356.73, 0.000, 0.000, 0.000, 15:34:03.371
114, -4428.25, -4850.70, -4318.95, -4429.56, 0.000, 0.000, 0.000, 15:34:03.371
115, -4430.17, -4857.66, -4301.69, -4391.00, 0.000, 0.000, 0.000, 15:34:03.371
116, -4446.76, -4854.40, -4336.69, -4452.57, 0.000, 0.000, 0.000, 15:34:03.371
117, -4436.47, -4852.55, -4362.07, -4376.57, 0.000, 0.000, 0.000, 15:34:03.436
118, -4456.77, -4862.81, -4311.35, -4449.76, 0.000, 0.000, 0.000, 15:34:03.436
119, -4454.38, -4878.52, -4318.79, -4454.63, 0.000, 0.000, 0.000, 15:34:03.436
120, -4457.41, -4867.29, -4328.02, -4497.63, 0.000, 0.000, 0.000, 15:34:03.436
121, -4440.79, -4862.50, -4357.02, -4469.55, 0.000, 0.000, 0.000, 15:34:03.437
122, -4428.56, -4855.03, -4303.90, -4577.10, 0.000, 0.000, 0.000, 15:34:03.437
123, -4434.96, -4859.88, -4318.81, -4416.96, 0.000, 0.000, 0.000, 15:34:03.437
124, -4431.88, -4852.99, -4296.99, -4566.75, 0.000, 0.000, 0.000, 15:34:03.437
125, -4426.64, -4845.28, -4287.90, -4599.54, 0.000, 0.000, 0.000, 15:34:03.437
126, -4424.04, -4828.69, -4246.84, -4445.41, 0.000, 0.000, 0.000, 15:34:03.438
127, -4410.76, -4831.11, -4282.74, -4332.25, 0.000, 0.000, 0.000, 15:34:03.438
128, -4425.71, -4833.50, -4314.52, -4514.22, 0.000, 0.000, 0.000, 15:34:03.438
129, -4418.74, -4836.73, -4275.05, -4406.97, 0.000, 0.000, 0.000, 15:34:03.457
130, -4424.44, -4836.51, -4277.98, -4475.59, 0.000, 0.000, 0.000, 15:34:03.457
131, -4416.11, -4844.13, -4285.24, -4433.71, 0.000, 0.000, 0.000, 15:34:03.458
132, -4428.47, -4848.02, -4329.54, -4500.20, 0.000, 0.000, 0.000, 15:34:03.458
133, -4415.34, -4841.20, -4301.29, -4506.23, 0.000, 0.000, 0.000, 15:34:03.541
134, -4416.48, -4839.03, -4303.10, -4295.48, 0.000, 0.000, 0.000, 15:34:03.541
135, -4430.29, -4839.16, -4297.38, -4561.24, 0.000, 0.000, 0.000, 15:34:03.542
136, -4433.80, -4852.40, -4295.79, -4387.67, 0.000, 0.000, 0.000, 15:34:03.543
137, -4429.30, -4848.92, -4283.85, -4461.56, 0.000, 0.000, 0.000, 15:34:03.543
138, -4428.44, -4852.71, -4302.19, -4577.16, 0.000, 0.000, 0.000, 15:34:03.543
139, -4418.04, -4836.13, -4281.44, -4537.28, 0.000, 0.000, 0.000, 15:34:03.543
140, -4410.85, -4835.73, -4272.87, -4427.05, 0.000, 0.000, 0.000, 15:34:03.544
141, -4423.58, -4840.70, -4273.19, -4355.87, 0.000, 0.000, 0.000, 15:34:03.544
142, -4427.29, -4840.47, -4275.33, -4330.75, 0.000, 0.000, 0.000, 15:34:03.544
143, -4431.59, -4846.20, -4309.31, -4525.11, 0.000, 0.000, 0.000, 15:34:03.544
144, -4421.12, -4840.39, -4339.68, -4336.42, 0.000, 0.000, 0.000, 15:34:03.544
145, -4427.34, -4845.69, -4315.72, -4413.81, 0.000, 0.000, 0.000, 15:34:03.547
146, -4444.20, -4858.83, -4344.80, -4560.08, 0.000, 0.000, 0.000, 15:34:03.547
147, -4453.14, -4869.64, -4294.13, -4525.15, 0.000, 0.000, 0.000, 15:34:03.547
148, -4454.43, -4874.44, -4315.16, -4473.60, 0.000, 0.000, 0.000, 15:34:03.548
149, -4433.76, -4854.10, -4348.73, -4383.89, 0.000, 0.000, 0.000, 15:34:03.548
150, -4423.18, -4853.30, -4360.54, -4525.98, 0.000, 0.000, 0.000, 15:34:03.548
151, -4429.84, -4864.59, -4307.06, -4442.05, 0.000, 0.000, 0.000, 15:34:03.548
152, -4453.68, -4879.28, -4303.50, -4541.59, 0.000, 0.000, 0.000, 15:34:03.548
153, -4432.28, -4860.28, -4342.27, -4421.47, 0.000, 0.000, 0.000, 15:34:03.563
154, -4428.70, -4859.73, -4288.69, -4492.52, 0.000, 0.000, 0.000, 15:34:03.563
155, -4443.79, -4871.67, -4334.92, -4441.86, 0.000, 0.000, 0.000, 15:34:03.595
156, -4456.76, -4857.11, -4332.91, -4487.55, 0.000, 0.000, 0.000, 15:34:03.595
157, -4442.30, -4864.60, -4334.60, -4417.50, 0.000, 0.000, 0.000, 15:34:03.595
158, -4442.63, -4862.31, -4359.98, -4401.63, 0.000, 0.000, 0.000, 15:34:03.596
159, -4434.26, -4850.32, -4343.73, -4392.90, 0.000, 0.000, 0.000, 15:34:03.596
160, -4438.15, -4856.07, -4288.38, -4577.36, 0.000, 0.000, 0.000, 15:34:03.596
161, -4416.26, -4841.55, -4263.01, -4482.33, 0.000, 0.000, 0.000, 15:34:03.596
162, -4422.95, -4836.64, -4315.18, -4445.62, 0.000, 0.000, 0.000, 15:34:03.596
163, -4429.41, -4846.67, -4356.18, -4481.56, 0.000, 0.000, 0.000, 15:34:03.609
164, -4436.19, -4856.02, -4300.84, -4474.16, 0.000, 0.000, 0.000, 15:34:03.644
165, -4428.54, -4850.30, -4320.27, -4357.94, 0.000, 0.000, 0.000, 15:34:03.649
166, -4449.40, -4854.91, -4321.22, -4432.55, 0.000, 0.000, 0.000, 15:34:03.649
167, -4430.19, -4853.55, -4330.30, -4412.65, 0.000, 0.000, 0.000, 15:34:03.649
168, -4439.45, -4860.63, -4293.67, -4536.16, 0.000, 0.000, 0.000, 15:34:03.649
169, -4446.11, -4859.00, -4331.26, -4415.28, 0.000, 0.000, 0.000, 15:34:03.650
170, -4428.05, -4852.19, -4295.61, -4519.73, 0.000, 0.000, 0.000, 15:34:03.650
171, -4446.34, -4863.75, -4280.56, -4544.26, 0.000, 0.000, 0.000, 15:34:03.669
172, -4439.39, -4871.51, -4294.84, -4518.58, 0.000, 0.000, 0.000, 15:34:03.669
173, -4434.06, -4858.44, -4303.11, -4483.28, 0.000, 0.000, 0.000, 15:34:03.669
174, -4442.30, -4848.62, -4334.45, -4490.25, 0.000, 0.000, 0.000, 15:34:03.669
175, -4428.87, -4848.35, -4298.73, -4478.03, 0.000, 0.000, 0.000, 15:34:03.670
176, -4423.61, -4845.06, -4262.52, -4522.25, 0.000, 0.000, 0.000, 15:34:03.670
177, -4417.04, -4841.32, -4298.12, -4467.75, 0.000, 0.000, 0.000, 15:34:03.670
178, -4426.33, -4842.76, -4310.69, -4445.95, 0.000, 0.000, 0.000, 15:34:03.670
179, -4452.17, -4844.31, -4269.87, -4472.65, 0.000, 0.000, 0.000, 15:34:03.683
180, -4436.22, -4850.14, -4311.27, -4488.34, 0.000, 0.000, 0.000, 15:34:03.684
181, -4453.20, -4851.53, -4330.26, -4485.14, 0.000, 0.000, 0.000, 15:34:03.699
182, -4427.10, -4837.83, -4319.40, -4442.88, 0.000, 0.000, 0.000, 15:34:03.699
183, -4438.49, -4851.78, -4339.12, -4533.07, 0.000, 0.000, 0.000, 15:34:03.728
184, -4434.14, -4859.45, -4320.39, -4554.31, 0.000, 0.000, 0.000, 15:34:03.728
185, -4419.76, -4851.02, -4314.87, -4399.28, 0.000, 0.000, 0.000, 15:34:03.729
186, -4420.37, -4837.46, -4285.66, -4509.09, 0.000, 0.000, 0.000, 15:34:03.729
187, -4427.35, -4843.63, -4325.78, -4456.91, 0.000, 0.000, 0.000, 15:34:03.729
188, -4428.84, -4850.40, -4286.99, -4426.75, 0.000, 0.000, 0.000, 15:34:03.729
189, -4436.41, -4841.17, -4231.40, -4411.18, 0.000, 0.000, 0.000, 15:34:03.731
190, -4420.03, -4848.89, -4271.56, -4399.18, 0.000, 0.000, 0.000, 15:34:03.731
191, -4426.07, -4861.51, -4338.20, -4323.76, 0.000, 0.000, 0.000, 15:34:03.793
192, -4427.08, -4866.71, -4259.56, -4426.75, 0.000, 0.000, 0.000, 15:34:03.794
193, -4432.15, -4866.18, -4342.95, -4449.07, 0.000, 0.000, 0.000, 15:34:03.796
194, -4428.11, -4854.47, -4276.06, -4510.62, 0.000, 0.000, 0.000, 15:34:03.796
195, -4428.14, -4857.78, -4325.72, -4463.16, 0.000, 0.000, 0.000, 15:34:03.796
196, -4453.82, -4859.69, -4349.41, -4419.67, 0.000, 0.000, 0.000, 15:34:03.796
197, -4435.87, -4849.26, -4264.12, -4455.47, 0.000, 0.000, 0.000, 15:34:03.808
198, -4429.27, -4852.21, -4275.62, -4493.54, 0.000, 0.000, 0.000, 15:34:03.808
199, -4448.38, -4871.74, -4324.71, -4511.16, 0.000, 0.000, 0.000, 15:34:03.809
200, -4443.69, -4861.40, -4355.55, -4524.24, 0.000, 0.000, 0.000, 15:34:03.809
0, -4443.01, -4850.43, -4331.21, -4424.22, 0.000, 0.000, 0.000, 15:34:03.810
1, -4431.01, -4848.65, -4326.74, -4481.24, 0.000, 0.000, 0.000, 15:34:03.810
2, -4433.93, -4852.79, -4319.48, -4458.22, 0.000, 0.000, 0.000, 15:34:03.810
3, -4446.81, -4847.02, -4324.35, -4455.98, 0.000, 0.000, 0.000, 15:34:03.818
4, -4417.82, -4842.64, -4316.56, -4472.08, 0.000, 0.000, 0.000, 15:34:03.819
5, -4427.33, -4847.72, -4274.12, -4419.90, 0.000, 0.000, 0.000, 15:34:03.826
6, -4433.65, -4837.26, -4288.27, -4480.05, 0.000, 0.000, 0.000, 15:34:03.826
7, -4419.86, -4849.64, -4319.00, -4454.06, 0.000, 0.000, 0.000, 15:34:03.840
8, -4417.36, -4856.95, -4309.46, -4456.60, 0.000, 0.000, 0.000, 15:34:03.840
9, -4429.20, -4865.24, -4334.88, -4436.55, 0.000, 0.000, 0.000, 15:34:03.849
10, -4443.89, -4865.22, -4308.29, -4467.23, 0.000, 0.000, 0.000, 15:34:03.849
11, -4445.57, -4867.40, -4296.74, -4394.00, 0.000, 0.000, 0.000, 15:34:03.849
12, -4432.77, -4844.70, -4332.98, -4488.94, 0.000, 0.000, 0.000, 15:34:03.849
13, -4421.35, -4846.31, -4320.10, -4500.62, 0.000, 0.000, 0.000, 15:34:03.873
14, -4427.23, -4852.91, -4274.63, -4428.18, 0.000, 0.000, 0.000, 15:34:03.873
15, -4425.26, -4847.69, -4298.69, -4446.94, 0.000, 0.000, 0.000, 15:34:03.879
16, -4422.47, -4845.09, -4288.97, -4505.71, 0.000, 0.000, 0.000, 15:34:03.880
17, -4453.23, -4858.04, -4304.95, -4503.65, 0.000, 0.000, 0.000, 15:34:03.881
18, -4435.43, -4861.91, -4362.13, -4507.17, 0.000, 0.000, 0.000, 15:34:03.883
19, -4433.86, -4865.42, -4332.25, -4457.24, 0.000, 0.000, 0.000, 15:34:03.893
20, -4439.43, -4848.63, -4265.70, -4494.90, 0.000, 0.000, 0.000, 15:34:03.894
21, -4434.42, -4853.93, -4343.50, -4477.75, 0.000, 0.000, 0.000, 15:34:03.909
22, -4435.43, -4851.40, -4296.72, -4436.78, 0.000, 0.000, 0.000, 15:34:03.909
23, -4445.23, -4863.05, -4291.92, -4460.86, 0.000, 0.000, 0.000, 15:34:03.909
24, -4447.58, -4852.83, -4303.35, -4524.81, 0.000, 0.000, 0.000, 15:34:03.909
25, -4444.39, -4856.47, -4312.85, -4489.32, 0.000, 0.000, 0.000, 15:34:03.923
26, -4454.35, -4865.83, -4334.73, -4495.42, 0.000, 0.000, 0.000, 15:34:03.924
27, -4461.96, -4855.77, -4324.35, -4476.59, 0.000, 0.000, 0.000, 15:34:03.941
28, -4450.33, -4873.94, -4311.70, -4467.73, 0.000, 0.000, 0.000, 15:34:03.941
29, -4455.81, -4874.68, -4326.97, -4597.93, 0.000, 0.000, 0.000, 15:34:03.941
30, -4444.82, -4867.88, -4249.65, -4523.68, 0.000, 0.000, 0.000, 15:34:03.941
31, -4461.37, -4876.46, -4368.47, -4492.77, 0.000, 0.000, 0.000, 15:34:03.954
32, -4433.47, -4849.28, -4327.14, -4392.79, 0.000, 0.000, 0.000, 15:34:03.957
33, -4431.53, -4849.78, -4289.60, -4415.33, 0.000, 0.000, 0.000, 15:34:03.984
34, -4427.44, -4847.19, -4363.93, -4374.25, 0.000, 0.000, 0.000, 15:34:03.984
35, -4439.70, -4843.25, -4294.74, -4403.42, 0.000, 0.000, 0.000, 15:34:03.984
36, -4427.44, -4837.01, -4316.11, -4454.76, 0.000, 0.000, 0.000, 15:34:03.984
37, -4433.06, -4839.94, -4310.33, -4474.76, 0.000, 0.000, 0.000, 15:34:03.984
38, -4440.45, -4851.52, -4239.42, -4484.92, 0.000, 0.000, 0.000, 15:34:03.984
39, -4426.26, -4854.05, -4307.41, -4404.90, 0.000, 0.000, 0.000, 15:34:03.985
40, -4433.71, -4853.80, -4328.57, -4467.43, 0.000, 0.000, 0.000, 15:34:03.985
41, -4433.72, -4851.43, -4301.49, -4463.59, 0.000, 0.000, 0.000, 15:34:04.000
42, -4443.15, -4860.76, -4304.44, -4511.02, 0.000, 0.000, 0.000, 15:34:04.000
43, -4438.89, -4854.77, -4302.34, -4489.37, 0.000, 0.000, 0.000, 15:34:04.029
44, -4425.57, -4848.26, -4300.76, -4558.43, 0.000, 0.000, 0.000, 15:34:04.029
45, -4417.03, -4844.61, -4289.64, -4492.99, 0.000, 0.000, 0.000, 15:34:04.030
46, -4445.62, -4853.80, -4284.82, -4441.43, 0.000, 0.000, 0.000, 15:34:04.030
47, -4434.23, -4853.92, -4264.19, -4419.35, 0.000, 0.000, 0.000, 15:34:04.031
48, -4432.82, -4855.29, -4342.00, -4485.77, 0.000, 0.000, 0.000, 15:34:04.031
49, -4431.24, -4845.17, -4358.91, -4372.48, 0.000, 0.000, 0.000, 15:34:04.043
50, -4418.55, -4844.76, -4345.69, -4490.48, 0.000, 0.000, 0.000, 15:34:04.044
51, -4429.13, -4852.19, -4303.66, -4469.44, 0.000, 0.000, 0.000, 15:34:04.059
52, -4425.46, -4848.88, -4322.74, -4381.26, 0.000, 0.000, 0.000, 15:34:04.060
53, -4432.75, -4852.45, -4337.47, -4427.10, 0.000, 0.000, 0.000, 15:34:04.064
54, -4442.70, -4856.40, -4343.46, -4475.03, 0.000, 0.000, 0.000, 15:34:04.064
55, -4452.52, -4855.94, -4348.18, -4451.23, 0.000, 0.000, 0.000, 15:34:04.073
56, -4445.04, -4854.13, -4320.69, -4502.15, 0.000, 0.000, 0.000, 15:34:04.074
57, -4427.86, -4847.66, -4278.35, -4437.59, 0.000, 0.000, 0.000, 15:34:04.089
58, -4437.21, -4846.80, -4209.41, -4420.04, 0.000, 0.000, 0.000, 15:34:04.090
59, -4428.39, -4841.69, -4288.48, -4508.35, 0.000, 0.000, 0.000, 15:34:04.095
60, -4405.72, -4836.96, -4287.07, -4408.73, 0.000, 0.000, 0.000, 15:34:04.096
61, -4426.11, -4847.07, -4344.83, -4536.58, 0.000, 0.000, 0.000, 15:34:04.103
62, -4417.76, -4845.66, -4310.37, -4477.16, 0.000, 0.000, 0.000, 15:34:04.103
63, -4430.75, -4849.58, -4308.02, -4596.67, 0.000, 0.000, 0.000, 15:34:04.119
64, -4420.15, -4842.04, -4325.26, -4443.36, 0.000, 0.000, 0.000, 15:34:04.119
65, -4432.98, -4850.33, -4286.86, -4493.96, 0.000, 0.000, 0.000, 15:34:04.120
66, -4423.56, -4851.78, -4315.02, -4480.80, 0.000, 0.000, 0.000, 15:34:04.120
67, -4447.37, -4858.88, -4271.66, -4504.67, 0.000, 0.000, 0.000, 15:34:04.148
68, -4429.27, -4843.13, -4348.10, -4470.45, 0.000, 0.000, 0.000, 15:34:04.148
69, -4416.63, -4840.78, -4348.74, -4504.79, 0.000, 0.000, 0.000, 15:34:04.149
70, -4446.31, -4843.55, -4289.84, -4521.84, 0.000, 0.000, 0.000, 15:34:04.149
71, -4416.37, -4852.58, -4285.07, -4471.06, 0.000, 0.000, 0.000, 15:34:04.149
72, -4423.76, -4840.66, -4307.99, -4465.03, 0.000, 0.000, 0.000, 15:34:04.149
73, -4422.89, -4842.51, -4265.10, -4444.41, 0.000, 0.000, 0.000, 15:34:04.164
74, -4426.40, -4846.54, -4290.62, -4501.52, 0.000, 0.000, 0.000, 15:34:04.164
75, -4432.56, -4849.46, -4343.11, -4441.13, 0.000, 0.000, 0.000, 15:34:04.179
76, -4430.75, -4839.56, -4262.97, -4465.11, 0.000, 0.000, 0.000, 15:34:04.179
77, -4418.53, -4838.61, -4266.76, -4408.31, 0.000, 0.000, 0.000, 15:34:04.180
78, -4430.33, -4850.64, -4340.25, -4445.26, 0.000, 0.000, 0.000, 15:34:04.180
79, -4433.34, -4852.18, -4287.42, -4509.79, 0.000, 0.000, 0.000, 15:34:04.193
80, -4422.34, -4840.12, -4313.00, -4526.00, 0.000, 0.000, 0.000, 15:34:04.194
81, -4426.13, -4842.03, -4339.20, -4448.01, 0.000, 0.000, 0.000, 15:34:04.208
82, -4431.99, -4847.95, -4309.49, -4461.34, 0.000, 0.000, 0.000, 15:34:04.209
83, -4442.21, -4858.58, -4331.68, -4413.34, 0.000, 0.000, 0.000, 15:34:04.209
84, -4439.86, -4852.70, -4272.10, -4432.26, 0.000, 0.000, 0.000, 15:34:04.209
85, -4435.35, -4848.87, -4227.55, -4470.21, 0.000, 0.000, 0.000, 15:34:04.225
86, -4434.83, -4862.33, -4266.15, -4417.26, 0.000, 0.000, 0.000, 15:34:04.226
87, -4452.29, -4866.29, -4361.65, -4429.17, 0.000, 0.000, 0.000, 15:34:04.239
88, -4448.41, -4856.43, -4302.35, -4495.71, 0.000, 0.000, 0.000, 15:34:04.239
89, -4429.22, -4843.12, -4343.29, -4373.25, 0.000, 0.000, 0.000, 15:34:04.239
90, -4438.18, -4858.03, -4330.76, -4334.41, 0.000, 0.000, 0.000, 15:34:04.239
91, -4439.41, -4857.63, -4296.05, -4353.43, 0.000, 0.000, 0.000, 15:34:04.260
92, -4440.48, -4851.16, -4272.32, -4417.88, 0.000, 0.000, 0.000, 15:34:04.260
93, -4420.06, -4841.97, -4297.88, -4450.70, 0.000, 0.000, 0.000, 15:34:04.269
94, -4434.10, -4848.94, -4357.23, -4469.24, 0.000, 0.000, 0.000, 15:34:04.269
95, -4430.77, -4849.35, -4302.87, -4510.00, 0.000, 0.000, 0.000, 15:34:04.270
96, -4416.78, -4832.41, -4292.67, -4450.21, 0.000, 0.000, 0.000, 15:34:04.270
97, -4423.79, -4851.07, -4299.37, -4449.94, 0.000, 0.000, 0.000, 15:34:04.299
98, -4436.44, -4857.85, -4298.99, -4481.44, 0.000, 0.000, 0.000, 15:34:04.299
99, -4453.18, -4866.01, -4335.51, -4489.97, 0.000, 0.000, 0.000, 15:34:04.301
100, -4442.56, -4848.41, -4281.24, -4476.49, 0.000, 0.000, 0.000, 15:34:04.301
101, -4425.52, -4838.13, -4293.67, -4512.93, 0.000, 0.000, 0.000, 15:34:04.301
102, -4432.56, -4850.53, -4358.25, -4484.67, 0.000, 0.000, 0.000, 15:34:04.302
103, -4448.55, -4860.98, -4329.13, -4501.53, 0.000, 0.000, 0.000, 15:34:04.313
104, -4438.43, -4855.85, -4343.14, -4493.40, 0.000, 0.000, 0.000, 15:34:04.313
105, -4427.76, -4851.69, -4296.67, -4429.98, 0.000, 0.000, 0.000, 15:34:04.328
106, -4432.04, -4857.88, -4325.61, -4447.00, 0.000, 0.000, 0.000, 15:34:04.329
107, -4428.66, -4848.68, -4258.51, -4440.43, 0.000, 0.000, 0.000, 15:34:04.332
108, -4424.31, -4846.50, -4316.86, -4452.50, 0.000, 0.000, 0.000, 15:34:04.332
109, -4420.30, -4840.95, -4295.21, -4489.85, 0.000, 0.000, 0.000, 15:34:04.343
110, -4419.74, -4838.32, -4277.19, -4446.52, 0.000, 0.000, 0.000, 15:34:04.344
111, -4437.03, -4849.10, -4270.35, -4468.17, 0.000, 0.000, 0.000, 15:34:04.360
112, -4438.42, -4857.67, -4327.55, -4496.87, 0.000, 0.000, 0.000, 15:34:04.360
113, -4435.29, -4852.74, -4331.42, -4491.03, 0.000, 0.000, 0.000, 15:34:04.360
114, -4441.81, -4854.67, -4336.10, -4452.24, 0.000, 0.000, 0.000, 15:34:04.360
115, -4425.81, -4852.49, -4294.01, -4466.61, 0.000, 0.000, 0.000, 15:34:04.380
116, -4431.79, -4838.04, -4338.74, -4433.11, 0.000, 0.000, 0.000, 15:34:04.380
117, -4432.85, -4841.13, -4295.29, -4456.65, 0.000, 0.000, 0.000, 15:34:04.388
118, -4447.98, -4866.22, -4304.78, -4459.63, 0.000, 0.000, 0.000, 15:34:04.388
119, -4459.36, -4873.70, -4321.53, -4508.13, 0.000, 0.000, 0.000, 15:34:04.389
120, -4459.01, -4868.55, -4323.68, -4512.24, 0.000, 0.000, 0.000, 15:34:04.389
121, -4451.01, -4865.86, -4294.25, -4535.41, 0.000, 0.000, 0.000, 15:34:04.403
122, -4454.14, -4874.88, -4335.48, -4455.98, 0.000, 0.000, 0.000, 15:34:04.404
123, -4441.39, -4863.51, -4280.97, -4498.41, 0.000, 0.000, 0.000, 15:34:04.418
124, -4426.83, -4853.69, -4267.56, -4491.67, 0.000, 0.000, 0.000, 15:34:04.419
125, -4421.56, -4844.20, -4343.72, -4436.48, 0.000, 0.000, 0.000, 15:34:04.419
126, -4420.27, -4844.66, -4327.54, -4486.85, 0.000, 0.000, 0.000, 15:34:04.419
127, -4421.63, -4844.41, -4320.78, -4485.53, 0.000, 0.000, 0.000, 15:34:04.447
128, -4413.56, -4834.18, -4296.89, -4462.72, 0.000, 0.000, 0.000, 15:34:04.447
129, -4389.98, -4812.27, -4312.55, -4414.28, 0.000, 0.000, 0.000, 15:34:04.448
130, -4410.75, -4821.32, -4273.38, -4477.34, 0.000, 0.000, 0.000, 15:34:04.448
131, -4412.32, -4820.14, -4308.20, -4487.64, 0.000, 0.000, 0.000, 15:34:04.449
132, -4425.59, -4836.52, -4356.19, -4486.05, 0.000, 0.000, 0.000, 15:34:04.449
133, -4431.90, -4843.35, -4343.32, -4445.50, 0.000, 0.000, 0.000, 15:34:04.465
134, -4419.91, -4823.19, -4248.66, -4481.04, 0.000, 0.000, 0.000, 15:34:04.465
135, -4442.37, -4854.68, -4313.52, -4457.03, 0.000, 0.000, 0.000, 15:34:04.479
136, -4420.19, -4844.70, -4302.46, -4480.69, 0.000, 0.000, 0.000, 15:34:04.479
137, -4437.10, -4848.76, -4350.76, -4471.40, 0.000, 0.000, 0.000, 15:34:04.480
138, -4421.74, -4845.97, -4291.86, -4425.88, 0.000, 0.000, 0.000, 15:34:04.480
139, -4439.94, -4845.16, -4290.96, -4444.83, 0.000, 0.000, 0.000, 15:34:04.497
140, -4424.53, -4836.16, -4345.93, -4422.70, 0.000, 0.000, 0.000, 15:34:04.497
141, -4422.58, -4831.44, -4298.31, -4431.19, 0.000, 0.000, 0.000, 15:34:04.512
142, -4413.86, -4837.36, -4321.95, -4459.31, 0.000, 0.000, 0.000, 15:34:04.512
143, -4428.79, -4837.64, -4307.03, -4400.30, 0.000, 0.000, 0.000, 15:34:04.512
144, -4409.32, -4831.08, -4328.29, -4369.24, 0.000, 0.000, 0.000, 15:34:04.513
145, -4420.64, -4841.14, -4307.01, -4379.52, 0.000, 0.000, 0.000, 15:34:04.523
146, -4423.18, -4842.26, -4300.07, -4458.99, 0.000, 0.000, 0.000, 15:34:04.524
147, -4431.36, -4852.88, -4334.41, -4477.22, 0.000, 0.000, 0.000, 15:34:04.540
148, -4415.63, -4831.94, -4317.31, -4465.47, 0.000, 0.000, 0.000, 15:34:04.540
149, -4413.80, -4836.70, -4337.00, -4464.87, 0.000, 0.000, 0.000, 15:34:04.548
150, -4398.52, -4824.32, -4330.33, -4439.45, 0.000, 0.000, 0.000, 15:34:04.548
151, -4427.65, -4847.40, -4242.77, -4478.89, 0.000, 0.000, 0.000, 15:34:04.554
152, -4413.56, -4833.60, -4276.77, -4417.15, 0.000, 0.000, 0.000, 15:34:04.554
153, -4427.26, -4846.44, -4305.37, -4465.60, 0.000, 0.000, 0.000, 15:34:04.568
154, -4428.23, -4844.77, -4303.60, -4420.52, 0.000, 0.000, 0.000, 15:34:04.568
155, -4435.67, -4850.84, -4292.74, -4474.49, 0.000, 0.000, 0.000, 15:34:04.597
156, -4428.54, -4850.24, -4285.07, -4424.39, 0.000, 0.000, 0.000, 15:34:04.597
157, -4430.10, -4845.76, -4293.64, -4467.69, 0.000, 0.000, 0.000, 15:34:04.597
158, -4447.71, -4857.26, -4335.98, -4458.79, 0.000, 0.000, 0.000, 15:34:04.597
159, -4448.30, -4870.08, -4327.13, -4490.98, 0.000, 0.000, 0.000, 15:34:04.599
160, -4447.79, -4875.04, -4294.21, -4471.80, 0.000, 0.000, 0.000, 15:34:04.599
161, -4435.48, -4857.18, -4305.10, -4483.10, 0.000, 0.000, 0.000, 15:34:04.602
162, -4451.10, -4864.48, -4288.58, -4472.59, 0.000, 0.000, 0.000, 15:34:04.603
163, -4440.47, -4869.88, -4328.19, -4440.74, 0.000, 0.000, 0.000, 15:34:04.617
164, -4445.57, -4857.50, -4306.93, -4455.23, 0.000, 0.000, 0.000, 15:34:04.617
165, -4445.21, -4872.72, -4332.54, -4496.62, 0.000, 0.000, 0.000, 15:34:04.631
166, -4451.44, -4877.04, -4287.39, -4486.23, 0.000, 0.000, 0.000, 15:34:04.631
167, -4458.69, -4865.27, -4286.52, -4510.51, 0.000, 0.000, 0.000, 15:34:04.631
168, -4435.60, -4869.56, -4362.81, -4500.61, 0.000, 0.000, 0.000, 15:34:04.632
169, -4436.80, -4860.88, -4350.41, -4504.24, 0.000, 0.000, 0.000, 15:34:04.664
170, -4440.43, -4861.38, -4315.73, -4448.54, 0.000, 0.000, 0.000, 15:34:04.664
171, -4439.39, -4865.68, -4330.33, -4520.60, 0.000, 0.000, 0.000, 15:34:04.664
172, -4437.80, -4857.93, -4355.76, -4493.94, 0.000, 0.000, 0.000, 15:34:04.665
173, -4422.28, -4843.88, -4295.61, -4469.26, 0.000, 0.000, 0.000, 15:34:04.665
174, -4430.24, -4850.91, -4294.58, -4482.06, 0.000, 0.000, 0.000, 15:34:04.665
175, -4434.22, -4853.70, -4270.43, -4499.74, 0.000, 0.000, 0.000, 15:34:04.674
176, -4422.82, -4844.30, -4298.92, -4438.95, 0.000, 0.000, 0.000, 15:34:04.674
177, -4436.67, -4857.23, -4331.11, -4451.60, 0.000, 0.000, 0.000, 15:34:04.703
178, -4440.97, -4857.01, -4266.75, -4457.40, 0.000, 0.000, 0.000, 15:34:04.703
179, -4443.44, -4862.76, -4299.42, -4458.21, 0.000, 0.000, 0.000, 15:34:04.703
180, -4453.50, -4863.95, -4291.94, -4470.41, 0.000, 0.000, 0.000, 15:34:04.704
181, -4450.61, -4859.45, -4363.37, -4479.32, 0.000, 0.000, 0.000, 15:34:04.706
182, -4440.65, -4852.03, -4280.66, -4491.34, 0.000, 0.000, 0.000, 15:34:04.706
183, -4449.39, -4861.87, -4292.56, -4480.52, 0.000, 0.000, 0.000, 15:34:04.707
184, -4447.76, -4861.81, -4282.97, -4484.96, 0.000, 0.000, 0.000, 15:34:04.707
185, -4430.51, -4857.96, -4351.90, -4434.86, 0.000, 0.000, 0.000, 15:34:04.727
186, -4445.61, -4864.35, -4327.22, -4474.88, 0.000, 0.000, 0.000, 15:34:04.728
187, -4441.26, -4857.50, -4331.25, -4474.13, 0.000, 0.000, 0.000, 15:34:04.734
188, -4422.54, -4837.02, -4262.13, -4429.11, 0.000, 0.000, 0.000, 15:34:04.734
189, -4406.71, -4840.57, -4271.19, -4460.46, 0.000, 0.000, 0.000, 15:34:04.748
190, -4424.61, -4835.94, -4294.38, -4441.62, 0.000, 0.000, 0.000, 15:34:04.748
191, -4423.25, -4846.06, -4316.86, -4504.13, 0.000, 0.000, 0.000, 15:34:04.749
192, -4431.64, -4831.92, -4271.00, -4473.03, 0.000, 0.000, 0.000, 15:34:04.749
193, -4424.92, -4842.16, -4289.29, -4451.59, 0.000, 0.000, 0.000, 15:34:04.768
194, -4431.38, -4851.13, -4315.99, -4451.71, 0.000, 0.000, 0.000, 15:34:04.768
195, -4430.09, -4859.15, -4356.68, -4480.36, 0.000, 0.000, 0.000, 15:34:04.785
196, -4436.39, -4851.04, -4313.20, -4470.52, 0.000, 0.000, 0.000, 15:34:04.785
197, -4433.71, -4854.02, -4310.47, -4441.94, 0.000, 0.000, 0.000, 15:34:04.786
198, -4445.12, -4855.44, -4341.39, -4468.95, 0.000, 0.000, 0.000, 15:34:04.786
199, -4443.36, -4858.82, -4272.72, -4423.56, 0.000, 0.000, 0.000, 15:34:04.806
200, -4435.49, -4853.02, -4329.10, -4428.58, 0.000, 0.000, 0.000, 15:34:04.807
0, -4431.56, -4855.20, -4314.95, -4474.86, 0.000, 0.000, 0.000, 15:34:04.807
1, -4428.27, -4847.42, -4316.38, -4507.59, 0.000, 0.000, 0.000, 15:34:04.808
2, -4431.18, -4847.47, -4324.24, -4446.11, 0.000, 0.000, 0.000, 15:34:04.808
3, -4437.46, -4845.27, -4311.81, -4357.13, 0.000, 0.000, 0.000, 15:34:04.823
4, -4436.04, -4853.29, -4294.47, -4466.64, 0.000, 0.000, 0.000, 15:34:04.823
5, -4441.43, -4859.93, -4287.69, -4508.91, 0.000, 0.000, 0.000, 15:34:04.824
6, -4439.27, -4857.04, -4352.46, -4514.61, 0.000, 0.000, 0.000, 15:34:04.824
7, -4420.30, -4848.24, -4286.12, -4467.79, 0.000, 0.000, 0.000, 15:34:04.850
8, -4425.78, -4836.72, -4345.01, -4491.42, 0.000, 0.000, 0.000, 15:34:04.936
9, -4422.06, -4839.60, -4333.86, -4436.00, 0.000, 0.000, 0.000, 15:34:04.953
10, -4434.53, -4860.16, -4335.58, -4457.42, 0.000, 0.000, 0.000, 15:34:04.953
11, -4435.02, -4853.64, -4286.24, -4501.00, 0.000, 0.000, 0.000, 15:34:04.968
12, -4443.35, -4854.91, -4318.24, -4506.43, 0.000, 0.000, 0.000, 15:34:04.969
13, -4429.75, -4851.17, -4255.55, -4487.53, 0.000, 0.000, 0.000, 15:34:05.003
14, -4434.89, -4858.65, -4289.84, -4501.43, 0.000, 0.000, 0.000, 15:34:05.004
15, -4440.35, -4858.00, -4313.42, -4457.20, 0.000, 0.000, 0.000, 15:34:05.004
16, -4441.08, -4850.81, -4319.20, -4477.80, 0.000, 0.000, 0.000, 15:34:05.005
17, -4442.12, -4854.55, -4330.33, -4453.79, 0.000, 0.000, 0.000, 15:34:05.005
18, -4440.62, -4871.70, -4325.39, -4491.20, 0.000, 0.000, 0.000, 15:34:05.005
19, -4444.30, -4864.81, -4267.08, -4456.69, 0.000, 0.000, 0.000, 15:34:05.006
20, -4443.82, -4864.02, -4346.74, -4505.26, 0.000, 0.000, 0.000, 15:34:05.006
21, -4433.52, -4870.34, -4328.87, -4416.49, 0.000, 0.000, 0.000, 15:34:05.006
22, -4442.77, -4866.95, -4276.69, -4456.33, 0.000, 0.000, 0.000, 15:34:05.006
23, -4444.33, -4856.23, -4330.61, -4503.95, 0.000, 0.000, 0.000, 15:34:05.007
24, -4428.30, -4852.94, -4295.32, -4458.39, 0.000, 0.000, 0.000, 15:34:05.008
25, -4418.16, -4845.31, -4321.81, -4496.74, 0.000, 0.000, 0.000, 15:34:05.008
26, -4431.39, -4845.72, -4305.55, -4459.75, 0.000, 0.000, 0.000, 15:34:05.008
27, -4433.43, -4842.63, -4305.32, -4451.90, 0.000, 0.000, 0.000, 15:34:05.009
28, -4421.00, -4849.01, -4285.60, -4472.91, 0.000, 0.000, 0.000, 15:34:05.009
29, -4431.64, -4844.89, -4333.83, -4474.70, 0.000, 0.000, 0.000, 15:34:05.009
30, -4442.34, -4856.83, -4306.86, -4407.12, 0.000, 0.000, 0.000, 15:34:05.010
31, -4443.68, -4853.40, -4297.90, -4451.88, 0.000, 0.000, 0.000, 15:34:05.010
32, -4431.16, -4855.74, -4307.00, -4462.23, 0.000, 0.000, 0.000, 15:34:05.010
33, -4433.72, -4858.51, -4310.87, -4448.47, 0.000, 0.000, 0.000, 15:34:05.011
34, -4449.44, -4860.17, -4294.25, -4453.69, 0.000, 0.000, 0.000, 15:34:05.011
35, -4440.41, -4856.61, -4309.56, -4430.04, 0.000, 0.000, 0.000, 15:34:05.018
36, -4438.43, -4847.22, -4291.79, -4398.76, 0.000, 0.000, 0.000, 15:34:05.019
37, -4445.45, -4860.42, -4325.46, -4434.98, 0.000, 0.000, 0.000, 15:34:05.022
38, -4446.80, -4862.49, -4331.14, -4509.10, 0.000, 0.000, 0.000, 15:34:05.023
39, -4431.38, -4859.63, -4322.57, -4479.28, 0.000, 0.000, 0.000, 15:34:05.023
40, -4427.45, -4851.67, -4264.82, -4497.79, 0.000, 0.000, 0.000, 15:34:05.023
41, -4429.85, -4848.39, -4281.04, -4468.10, 0.000, 0.000, 0.000, 15:34:05.179
42, -4420.69, -4851.94, -4312.14, -4443.48, 0.000, 0.000, 0.000, 15:34:05.179
43, -4441.92, -4849.25, -4336.23, -4456.96, 0.000, 0.000, 0.000, 15:34:05.179
44, -4423.48, -4838.01, -4292.53, -4442.98, 0.000, 0.000, 0.000, 15:34:05.179
45, -4431.99, -4834.14, -4310.00, -4453.26, 0.000, 0.000, 0.000, 15:34:05.180
46, -4425.18, -4843.94, -4358.01, -4471.90, 0.000, 0.000, 0.000, 15:34:05.180
47, -4448.24, -4865.56, -4347.32, -4518.19, 0.000, 0.000, 0.000, 15:34:05.180
48, -4421.51, -4837.45, -4284.55, -4459.81, 0.000, 0.000, 0.000, 15:34:05.180
49, -4426.26, -4842.56, -4300.35, -4466.89, 0.000, 0.000, 0.000, 15:34:05.180
50, -4455.41, -4858.97, -4282.61, -4497.61, 0.000, 0.000, 0.000, 15:34:05.180
51, -4429.91, -4843.17, -4294.47, -4444.25, 0.000, 0.000, 0.000, 15:34:05.181
52, -4426.06, -4848.11, -4285.99, -4426.08, 0.000, 0.000, 0.000, 15:34:05.181
53, -4436.98, -4864.25, -4299.01, -4487.83, 0.000, 0.000, 0.000, 15:34:05.181
54, -4426.71, -4843.73, -4309.45, -4455.22, 0.000, 0.000, 0.000, 15:34:05.181
55, -4419.91, -4838.42, -4325.94, -4386.75, 0.000, 0.000, 0.000, 15:34:05.184
56, -4455.57, -4841.90, -4359.32, -4328.97, 0.000, 0.000, 0.000, 15:34:05.184
57, -4448.64, -4851.22, -4340.15, -4502.28, 0.000, 0.000, 0.000, 15:34:05.184
58, -4431.73, -4852.91, -4342.51, -4452.53, 0.000, 0.000, 0.000, 15:34:05.185
59, -4427.66, -4850.90, -4320.10, -4459.53, 0.000, 0.000, 0.000, 15:34:05.185
60, -4427.49, -4853.23, -4354.14, -4517.26, 0.000, 0.000, 0.000, 15:34:05.185
61, -4426.23, -4855.17, -4321.39, -4420.36, 0.000, 0.000, 0.000, 15:34:05.220
62, -4436.22, -4863.04, -4318.23, -4463.20, 0.000, 0.000, 0.000, 15:34:05.220
63, -4444.67, -4855.09, -4314.69, -4519.13, 0.000, 0.000, 0.000, 15:34:05.231
64, -4434.26, -4845.44, -4308.92, -4410.69, 0.000, 0.000, 0.000, 15:34:05.231
65, -4434.35, -4851.33, -4304.27, -4487.81, 0.000, 0.000, 0.000, 15:34:05.231
66, -4433.53, -4855.02, -4260.90, -4452.52, 0.000, 0.000, 0.000, 15:34:05.231
67, -4417.04, -4857.29, -4314.44, -4526.94, 0.000, 0.000, 0.000, 15:34:05.249
68, -4429.96, -4861.02, -4303.21, -4485.06, 0.000, 0.000, 0.000, 15:34:05.250
69, -4436.24, -4852.79, -4329.11, -4489.37, 0.000, 0.000, 0.000, 15:34:05.250
70, -4438.06, -4855.04, -4330.15, -4447.66, 0.000, 0.000, 0.000, 15:34:05.250
71, -4435.46, -4852.82, -4354.41, -4480.27, 0.000, 0.000, 0.000, 15:34:05.250
72, -4426.90, -4835.73, -4282.46, -4482.30, 0.000, 0.000, 0.000, 15:34:05.250
73, -4412.07, -4832.23, -4309.13, -4505.60, 0.000, 0.000, 0.000, 15:34:05.252
74, -4428.69, -4851.72, -4307.60, -4419.59, 0.000, 0.000, 0.000, 15:34:05.252
75, -4421.15, -4845.01, -4267.53, -4475.45, 0.000, 0.000, 0.000, 15:34:05.260
76, -4414.56, -4832.98, -4301.83, -4466.15, 0.000, 0.000, 0.000, 15:34:05.260
77, -4422.50, -4842.08, -4279.63, -4475.50, 0.000, 0.000, 0.000, 15:34:05.260
78, -4440.07, -4851.65, -4313.26, -4461.50, 0.000, 0.000, 0.000, 15:34:05.260
79, -4435.69, -4851.33, -4279.57, -4451.16, 0.000, 0.000, 0.000, 15:34:05.261
80, -4430.19, -4850.37, -4308.62, -4496.35, 0.000, 0.000, 0.000, 15:34:05.261
81, -4427.25, -4852.32, -4284.38, -4500.55, 0.000, 0.000, 0.000, 15:34:05.261
82, -4452.07, -4870.05, -4348.27, -4517.19, 0.000, 0.000, 0.000, 15:34:05.261
83, -4449.76, -4865.26, -4374.73, -4460.64, 0.000, 0.000, 0.000, 15:34:05.261
84, -4443.81, -4856.91, -4359.93, -4473.80, 0.000, 0.000, 0.000, 15:34:05.261
85, -4445.21, -4866.65, -4329.17, -4474.44, 0.000, 0.000, 0.000, 15:34:05.264
86, -4446.36, -4866.65, -4268.14, -4506.61, 0.000, 0.000, 0.000, 15:34:05.265
87, -4440.24, -4866.36, -4272.22, -4468.71, 0.000, 0.000, 0.000, 15:34:05.265
88, -4430.53, -4856.16, -4334.20, -4410.43, 0.000, 0.000, 0.000, 15:34:05.265
89, -4444.65, -4864.01, -4321.42, -4492.37, 0.000, 0.000, 0.000, 15:34:05.265
90, -4442.64, -4866.18, -4349.33, -4489.27, 0.000, 0.000, 0.000, 15:34:05.265
91, -4432.71, -4861.91, -4242.26, -4473.03, 0.000, 0.000, 0.000, 15:34:05.266
92, -4452.74, -4855.68, -4268.35, -4459.50, 0.000, 0.000, 0.000, 15:34:05.266
93, -4434.12, -4851.56, -4275.82, -4466.14, 0.000, 0.000, 0.000, 15:34:05.277
94, -4441.55, -4859.57, -4296.78, -4468.09, 0.000, 0.000, 0.000, 15:34:05.278
95, -4436.30, -4852.68, -4320.69, -4433.69, 0.000, 0.000, 0.000, 15:34:05.279
96, -4423.39, -4838.82, -4336.47, -4465.19, 0.000, 0.000, 0.000, 15:34:05.279
97, -4429.83, -4847.38, -4331.64, -4454.24, 0.000, 0.000, 0.000, 15:34:05.312
98, -4438.69, -4850.89, -4352.55, -4464.45, 0.000, 0.000, 0.000, 15:34:05.312
99, -4433.95, -4846.65, -4355.20, -4449.52, 0.000, 0.000, 0.000, 15:34:05.312
100, -4425.67, -4834.23, -4318.75, -4421.92, 0.000, 0.000, 0.000, 15:34:05.313
101, -4429.67, -4849.04, -4341.14, -4479.70, 0.000, 0.000, 0.000, 15:34:05.313
102, -4431.30, -4852.17, -4316.88, -4446.57, 0.000, 0.000, 0.000, 15:34:05.313
103, -4435.93, -4854.46, -4321.15, -4467.49, 0.000, 0.000, 0.000, 15:34:05.319
104, -4430.39, -4840.91, -4283.48, -4456.31, 0.000, 0.000, 0.000, 15:34:05.319
105, -4437.54, -4838.74, -4275.33, -4504.10, 0.000, 0.000, 0.000, 15:34:05.337
106, -4425.82, -4844.92, -4262.74, -4450.06, 0.000, 0.000, 0.000, 15:34:05.337
107, -4438.31, -4851.01, -4267.77, -4434.59, 0.000, 0.000, 0.000, 15:34:05.338
108, -4422.30, -4847.76, -4278.49, -4475.30, 0.000, 0.000, 0.000, 15:34:05.338
109, -4438.27, -4854.55, -4324.40, -4510.66, 0.000, 0.000, 0.000, 15:34:05.348
110, -4433.96, -4853.44, -4319.64, -4415.53, 0.000, 0.000, 0.000, 15:34:05.349
111, -4431.74, -4844.58, -4330.85, -4449.91, 0.000, 0.000, 0.000, 15:34:05.378
112, -4422.06, -4843.10, -4294.35, -4485.32, 0.000, 0.000, 0.000, 15:34:05.378
113, -4443.21, -4851.03, -4315.98, -4474.80, 0.000, 0.000, 0.000, 15:34:05.379
114, -4449.11, -4860.37, -4346.14, -4436.39, 0.000, 0.000, 0.000, 15:34:05.379
115, -4441.67, -4851.94, -4303.46, -4494.00, 0.000, 0.000, 0.000, 15:34:05.379
116, -4428.77, -4862.61, -4310.09, -4455.14, 0.000, 0.000, 0.000, 15:34:05.379
117, -4429.04, -4852.98, -4312.98, -4504.34, 0.000, 0.000, 0.000, 15:34:05.380
118, -4426.59, -4841.17, -4306.04, -4450.96, 0.000, 0.000, 0.000, 15:34:05.380
119, -4437.53, -4836.17, -4297.50, -4462.84, 0.000, 0.000, 0.000, 15:34:05.398
120, -4431.20, -4855.13, -4307.37, -4448.89, 0.000, 0.000, 0.000, 15:34:05.399
121, -4448.75, -4869.87, -4280.07, -4474.10, 0.000, 0.000, 0.000, 15:34:05.428
122, -4443.24, -4872.83, -4329.12, -4491.15, 0.000, 0.000, 0.000, 15:34:05.428
123, -4437.65, -4864.07, -4339.58, -4455.92, 0.000, 0.000, 0.000, 15:34:05.428
124, -4437.71, -4865.34, -4260.32, -4483.75, 0.000, 0.000, 0.000, 15:34:05.428
125, -4462.31, -4878.16, -4332.24, -4487.51, 0.000, 0.000, 0.000, 15:34:05.428
126, -4454.67, -4869.34, -4330.66, -4484.35, 0.000, 0.000, 0.000, 15:34:05.429
127, -4432.97, -4867.75, -4347.58, -4454.73, 0.000, 0.000, 0.000, 15:34:05.439
128, -4428.37, -4854.56, -4277.80, -4493.90, 0.000, 0.000, 0.000, 15:34:05.439
129, -4430.06, -4859.12, -4314.57, -4449.46, 0.000, 0.000, 0.000, 15:34:05.468
130, -4429.45, -4860.06, -4282.71, -4470.50, 0.000, 0.000, 0.000, 15:34:05.468
131, -4417.78, -4851.46, -4279.12, -4477.76, 0.000, 0.000, 0.000, 15:34:05.472
132, -4410.44, -4834.39, -4319.34, -4473.27, 0.000, 0.000, 0.000, 15:34:05.472
133, -4440.40, -4860.87, -4352.47, -4501.88, 0.000, 0.000, 0.000, 15:34:05.472
134, -4438.86, -4861.76, -4346.39, -4480.50, 0.000, 0.000, 0.000, 15:34:05.472
135, -4457.07, -4859.76, -4304.39, -4511.31, 0.000, 0.000, 0.000, 15:34:05.509
136, -4440.88, -4851.14, -4335.13, -4473.07, 0.000, 0.000, 0.000, 15:34:05.509
137, -4402.28, -4822.88, -4260.82, -4432.94, 0.000, 0.000, 0.000, 15:34:05.514
138, -4428.74, -4841.64, -4268.54, -4431.27, 0.000, 0.000, 0.000, 15:34:05.514
139, -4438.92, -4843.81, -4294.50, -4439.63, 0.000, 0.000, 0.000, 15:34:05.514
140, -4425.78, -4840.00, -4340.24, -4462.16, 0.000, 0.000, 0.000, 15:34:05.514
141, -4426.96, -4848.75, -4327.95, -4465.31, 0.000, 0.000, 0.000, 15:34:05.514
142, -4441.75, -4863.88, -4293.06, -4454.81, 0.000, 0.000, 0.000, 15:34:05.514
143, -4444.97, -4869.16, -4335.62, -4473.33, 0.000, 0.000, 0.000, 15:34:05.516
144, -4443.07, -4845.93, -4268.21, -4452.59, 0.000, 0.000, 0.000, 15:34:05.516
145, -4427.03, -4842.01, -4254.68, -4448.21, 0.000, 0.000, 0.000, 15:34:05.536
146, -4429.20, -4852.58, -4333.54, -4440.67, 0.000, 0.000, 0.000, 15:34:05.536
147, -4432.46, -4850.42, -4308.16, -4439.47, 0.000, 0.000, 0.000, 15:34:05.544
148, -4442.61, -4857.76, -4344.77, -4494.64, 0.000, 0.000, 0.000, 15:34:05.544
149, -4431.87, -4858.29, -4320.84, -4471.77, 0.000, 0.000, 0.000, 15:34:05.545
150, -4444.12, -4873.77, -4319.05, -4484.02, 0.000, 0.000, 0.000, 15:34:05.545
151, -4448.23, -4863.71, -4322.32, -4448.64, 0.000, 0.000, 0.000, 15:34:05.559
152, -4443.70, -4859.77, -4318.40, -4390.08, 0.000, 0.000, 0.000, 15:34:05.559
153, -4433.43, -4856.12, -4349.02, -4419.85, 0.000, 0.000, 0.000, 15:34:05.576
154, -4439.00, -4866.85, -4342.30, -4495.70, 0.000, 0.000, 0.000, 15:34:05.577
155, -4446.54, -4880.03, -4307.98, -4494.66, 0.000, 0.000, 0.000, 15:34:05.577
156, -4415.71, -4844.42, -4253.41, -4458.44, 0.000, 0.000, 0.000, 15:34:05.577
157, -4431.42, -4848.41, -4279.81, -4438.72, 0.000, 0.000, 0.000, 15:34:05.608
158, -4425.78, -4846.93, -4267.64, -4482.19, 0.000, 0.000, 0.000, 15:34:05.608
159, -4428.81, -4843.67, -4299.84, -4457.51, 0.000, 0.000, 0.000, 15:34:05.609
160, -4432.78, -4841.71, -4247.76, -4470.47, 0.000, 0.000, 0.000, 15:34:05.609
161, -4435.42, -4851.67, -4314.94, -4503.26, 0.000, 0.000, 0.000, 15:34:05.609
162, -4434.98, -4853.84, -4279.96, -4427.17, 0.000, 0.000, 0.000, 15:34:05.610
163, -4435.12, -4861.49, -4334.05, -4505.76, 0.000, 0.000, 0.000, 15:34:05.633
164, -4441.38, -4867.40, -4334.39, -4463.91, 0.000, 0.000, 0.000, 15:34:05.634
165, -4436.50, -4856.92, -4283.60, -4461.76, 0.000, 0.000, 0.000, 15:34:05.634
166, -4434.55, -4859.04, -4301.40, -4489.00, 0.000, 0.000, 0.000, 15:34:05.634
167, -4421.29, -4859.12, -4310.58, -4455.94, 0.000, 0.000, 0.000, 15:34:05.650
168, -4436.57, -4852.91, -4296.54, -4461.38, 0.000, 0.000, 0.000, 15:34:05.650
169, -4430.83, -4849.54, -4352.60, -4466.84, 0.000, 0.000, 0.000, 15:34:05.650
170, -4445.09, -4867.68, -4365.27, -4447.42, 0.000, 0.000, 0.000, 15:34:05.651
171, -4443.76, -4856.05, -4362.72, -4475.52, 0.000, 0.000, 0.000, 15:34:05.663
172, -4418.48, -4838.38, -4311.61, -4437.26, 0.000, 0.000, 0.000, 15:34:05.663
173, -4426.82, -4843.47, -4331.73, -4421.47, 0.000, 0.000, 0.000, 15:34:05.664
174, -4426.43, -4851.80, -4338.27, -4477.84, 0.000, 0.000, 0.000, 15:34:05.664
175, -4429.06, -4861.69, -4323.95, -4473.42, 0.000, 0.000, 0.000, 15:34:05.692
176, -4432.62, -4841.46, -4338.34, -4434.73, 0.000, 0.000, 0.000, 15:34:05.693
177, -4432.71, -4846.59, -4312.18, -4487.32, 0.000, 0.000, 0.000, 15:34:05.711
178, -4425.98, -4839.65, -4292.90, -4451.17, 0.000, 0.000, 0.000, 15:34:05.711
179, -4420.51, -4837.07, -4297.47, -4494.14, 0.000, 0.000, 0.000, 15:34:05.711
180, -4425.38, -4846.96, -4319.35, -4471.58, 0.000, 0.000, 0.000, 15:34:05.711
181, -4446.98, -4856.48, -4285.24, -4397.79, 0.000, 0.000, 0.000, 15:34:05.711
182, -4444.39, -4858.52, -4302.22, -4481.57, 0.000, 0.000, 0.000, 15:34:05.711
183, -4444.30, -4859.16, -4280.50, -4498.32, 0.000, 0.000, 0.000, 15:34:05.712
184, -4451.70, -4862.20, -4338.31, -4492.72, 0.000, 0.000, 0.000, 15:34:05.712
185, -4441.68, -4856.16, -4312.45, -4420.31, 0.000, 0.000, 0.000, 15:34:05.733
186, -4453.14, -4858.10, -4286.63, -4497.70, 0.000, 0.000, 0.000, 15:34:05.734
187, -4423.59, -4849.76, -4284.29, -4447.38, 0.000, 0.000, 0.000, 15:34:05.744
188, -4437.24, -4842.30, -4303.49, -4450.48, 0.000, 0.000, 0.000, 15:34:05.744
189, -4441.79, -4863.41, -4313.38, -4425.78, 0.000, 0.000, 0.000, 15:34:05.776
190, -4431.21, -4852.13, -4342.83, -4470.40, 0.000, 0.000, 0.000, 15:34:05.776
191, -4423.91, -4830.97, -4313.47, -4467.01, 0.000, 0.000, 0.000, 15:34:05.777
192, -4411.25, -4828.26, -4346.55, -4460.99, 0.000, 0.000, 0.000, 15:34:05.777
193, -4402.79, -4833.30, -4322.27, -4451.15, 0.000, 0.000, 0.000, 15:34:05.777
194, -4427.26, -4856.79, -4344.39, -4512.71, 0.000, 0.000, 0.000, 15:34:05.777
195, -4433.48, -4852.95, -4319.56, -4465.14, 0.000, 0.000, 0.000, 15:34:05.783
196, -4435.35, -4854.75, -4311.31, -4468.05, 0.000, 0.000, 0.000, 15:34:05.783
197, -4437.50, -4843.85, -4259.67, -4455.17, 0.000, 0.000, 0.000, 15:34:05.784
198, -4434.72, -4853.03, -4281.29, -4442.21, 0.000, 0.000, 0.000, 15:34:05.784
199, -4423.51, -4849.18, -4298.76, -4415.00, 0.000, 0.000, 0.000, 15:34:05.813
200, -4435.88, -4863.87, -4310.93, -4498.06, 0.000, 0.000, 0.000, 15:34:05.813
0, -4435.28, -4859.68, -4303.40, -4502.00, 0.000, 0.000, 0.000, 15:34:05.814
1, -4456.72, -4866.96, -4323.38, -4470.78, 0.000, 0.000, 0.000, 15:34:05.814
2, -4454.34, -4861.45, -4301.91, -4503.29, 0.000, 0.000, 0.000, 15:34:05.814
3, -4439.44, -4851.32, -4331.90, -4516.29, 0.000, 0.000, 0.000, 15:34:05.815
4, -4419.41, -4843.34, -4304.33, -4473.99, 0.000, 0.000, 0.000, 15:34:05.815
5, -4419.19, -4842.34, -4299.70, -4495.29, 0.000, 0.000, 0.000, 15:34:05.828
6, -4441.16, -4854.27, -4276.04, -4467.07, 0.000, 0.000, 0.000, 15:34:05.828
7, -4451.61, -4861.59, -4242.20, -4477.86, 0.000, 0.000, 0.000, 15:34:05.850
8, -4433.10, -4848.41, -4272.83, -4483.27, 0.000, 0.000, 0.000, 15:34:05.850
9, -4436.38, -4850.03, -4332.68, -4475.11, 0.000, 0.000, 0.000, 15:34:05.863
10, -4441.61, -4854.79, -4282.93, -4454.59, 0.000, 0.000, 0.000, 15:34:05.863
11, -4439.37, -4846.23, -4263.21, -4417.07, 0.000, 0.000, 0.000, 15:34:05.863
12, -4451.32, -4859.42, -4286.26, -4437.58, 0.000, 0.000, 0.000, 15:34:05.864
13, -4464.85, -4868.08, -4303.33, -4484.05, 0.000, 0.000, 0.000, 15:34:05.882
14, -4453.61, -4864.31, -4307.20, -4466.82, 0.000, 0.000, 0.000, 15:34:05.882
15, -4451.03, -4865.74, -4388.69, -4508.70, 0.000, 0.000, 0.000, 15:34:05.894
16, -4445.25, -4863.60, -4337.90, -4441.33, 0.000, 0.000, 0.000, 15:34:05.894
17, -4443.35, -4856.65, -4341.76, -4372.78, 0.000, 0.000, 0.000, 15:34:05.894
18, -4433.84, -4860.14, -4302.85, -4412.80, 0.000, 0.000, 0.000, 15:34:05.894
19, -4452.90, -4861.66, -4317.23, -4495.25, 0.000, 0.000, 0.000, 15:34:05.903
20, -4420.33, -4834.66, -4347.67, -4501.79, 0.000, 0.000, 0.000, 15:34:05.904
21, -4433.39, -4848.30, -4331.83, -4462.43, 0.000, 0.000, 0.000, 15:34:05.918
22, -4445.17, -4851.99, -4312.28, -4516.44, 0.000, 0.000, 0.000, 15:34:05.918
23, -4434.52, -4855.72, -4293.73, -4491.74, 0.000, 0.000, 0.000, 15:34:05.926
24, -4428.86, -4853.46, -4288.66, -4488.38, 0.000, 0.000, 0.000, 15:34:05.926
25, -4418.85, -4847.54, -4317.05, -4450.88, 0.000, 0.000, 0.000, 15:34:05.936
26, -4423.57, -4852.55, -4360.45, -4478.10, 0.000, 0.000, 0.000, 15:34:05.936
27, -4413.21, -4848.15, -4311.61, -4478.06, 0.000, 0.000, 0.000, 15:34:05.948
28, -4450.96, -4852.86, -4350.33, -4483.41, 0.000, 0.000, 0.000, 15:34:05.948
29, -4435.86, -4865.60, -4278.51, -4510.16, 0.000, 0.000, 0.000, 15:34:05.948
30, -4437.40, -4859.76, -4295.25, -4465.12, 0.000, 0.000, 0.000, 15:34:05.949
31, -4434.68, -4838.79, -4218.21, -4472.73, 0.000, 0.000, 0.000, 15:34:05.964
32, -4416.13, -4837.62, -4270.30, -4434.02, 0.000, 0.000, 0.000, 15:34:05.965
33, -4438.20, -4850.53, -4328.48, -4439.05, 0.000, 0.000, 0.000, 15:34:05.978
34, -4443.09, -4848.12, -4356.00, -4411.64, 0.000, 0.000, 0.000, 15:34:05.979
35, -4434.66, -4849.76, -4316.38, -4449.88, 0.000, 0.000, 0.000, 15:34:05.979
36, -4429.54, -4851.50, -4360.16, -4442.32, 0.000, 0.000, 0.000, 15:34:05.979
37, -4431.67, -4855.54, -4325.02, -4459.03, 0.000, 0.000, 0.000, 15:34:05.993
38, -4415.55, -4844.67, -4329.14, -4450.87, 0.000, 0.000, 0.000, 15:34:05.994
39, -4433.41, -4843.15, -4239.06, -4450.12, 0.000, 0.000, 0.000, 15:34:06.009
40, -4418.88, -4838.91, -4244.82, -4446.02, 0.000, 0.000, 0.000, 15:34:06.009
41, -4415.97, -4849.29, -4284.14, -4463.01, 0.000, 0.000, 0.000, 15:34:06.011
42, -4441.52, -4860.87, -4299.59, -4478.86, 0.000, 0.000, 0.000, 15:34:06.011
43, -4424.64, -4840.92, -4264.32, -4494.66, 0.000, 0.000, 0.000, 15:34:06.026
44, -4414.82, -4833.99, -4329.02, -4439.64, 0.000, 0.000, 0.000, 15:34:06.026
45, -4417.53, -4846.25, -4296.79, -4458.30, 0.000, 0.000, 0.000, 15:34:06.044
46, -4417.38, -4834.23, -4326.81, -4439.65, 0.000, 0.000, 0.000, 15:34:06.044
47, -4426.45, -4835.27, -4267.36, -4459.99, 0.000, 0.000, 0.000, 15:34:06.045
48, -4418.84, -4835.94, -4292.43, -4434.67, 0.000, 0.000, 0.000, 15:34:06.045
49, -4447.56, -4855.70, -4330.37, -4500.19, 0.000, 0.000, 0.000, 15:34:06.061
50, -4429.11, -4847.67, -4313.56, -4438.14, 0.000, 0.000, 0.000, 15:34:06.061
51, -4434.85, -4845.16, -4260.98, -4488.44, 0.000, 0.000, 0.000, 15:34:06.068
52, -4427.78, -4843.05, -4327.69, -4397.22, 0.000, 0.000, 0.000, 15:34:06.068
53, -4418.29, -4851.18, -4259.97, -4512.50, 0.000, 0.000, 0.000, 15:34:06.083
54, -4457.20, -4851.14, -4288.87, -4394.94, 0.000, 0.000, 0.000, 15:34:06.083
55, -4428.76, -4846.02, -4340.86, -4469.48, 0.000, 0.000, 0.000, 15:34:06.084
56, -4433.92, -4857.95, -4298.07, -4478.68, 0.000, 0.000, 0.000, 15:34:06.084
57, -4421.14, -4844.72, -4336.41, -4453.96, 0.000, 0.000, 0.000, 15:34:06.098
58, -4419.03, -4847.18, -4345.44, -4438.76, 0.000, 0.000, 0.000, 15:34:06.098
59, -4413.80, -4841.69, -4314.81, -4440.87, 0.000, 0.000, 0.000, 15:34:06.099
60, -4445.85, -4858.95, -4349.71, -4450.31, 0.000, 0.000, 0.000, 15:34:06.099
61, -4434.03, -4856.17, -4312.01, -4461.68, 0.000, 0.000, 0.000, 15:34:06.113
62, -4431.53, -4863.07, -4372.60, -4481.82, 0.000, 0.000, 0.000, 15:34:06.113
63, -4426.63, -4848.32, -4307.34, -4410.47, 0.000, 0.000, 0.000, 15:34:06.130
64, -4426.29, -4856.38, -4323.97, -4471.27, 0.000, 0.000, 0.000, 15:34:06.132
65, -4426.56, -4854.53, -4293.66, -4436.84, 0.000, 0.000, 0.000, 15:34:06.137
66, -4426.35, -4852.82, -4304.48, -4482.20, 0.000, 0.000, 0.000, 15:34:06.138
67, -4438.94, -4857.51, -4319.93, -4451.91, 0.000, 0.000, 0.000, 15:34:06.143
68, -4435.21, -4844.94, -4318.95, -4407.13, 0.000, 0.000, 0.000, 15:34:06.143
69, -4411.38, -4828.71, -4317.92, -4499.84, 0.000, 0.000, 0.000, 15:34:06.159
70, -4416.75, -4830.60, -4296.59, -4477.00, 0.000, 0.000, 0.000, 15:34:06.159
71, -4392.26, -4805.29, -4294.26, -4499.28, 0.000, 0.000, 0.000, 15:34:06.159
72, -4426.17, -4847.12, -4285.48, -4450.57, 0.000, 0.000, 0.000, 15:34:06.159
73, -4445.81, -4870.92, -4376.86, -4514.62, 0.000, 0.000, 0.000, 15:34:06.174
74, -4423.63, -4842.34, -4305.42, -4467.50, 0.000, 0.000, 0.000, 15:34:06.174
75, -4408.64, -4793.23, -4256.14, -4440.14, 0.000, 0.000, 0.000, 15:34:06.200
76, -4399.45, -4820.48, -4298.85, -4419.08, 0.000, 0.000, 0.000, 15:34:06.200
77, -4430.15, -4857.82, -4334.02, -4453.58, 0.000, 0.000, 0.000, 15:34:06.200
78, -4439.01, -4864.11, -4307.76, -4454.48, 0.000, 0.000, 0.000, 15:34:06.200
79, -4430.29, -4855.32, -4287.03, -4477.80, 0.000, 0.000, 0.000, 15:34:06.211
80, -4435.96, -4855.84, -4302.29, -4493.96, 0.000, 0.000, 0.000, 15:34:06.211
81, -4444.32, -4855.78, -4314.37, -4494.73, 0.000, 0.000, 0.000, 15:34:06.228
82, -4412.97, -4847.68, -4270.05, -4461.78, 0.000, 0.000, 0.000, 15:34:06.229
83, -4424.56, -4834.67, -4290.74, -4449.23, 0.000, 0.000, 0.000, 15:34:06.229
84, -4418.65, -4831.87, -4304.33, -4442.43, 0.000, 0.000, 0.000, 15:34:06.229
85, -4448.16, -4859.18, -4333.62, -4452.75, 0.000, 0.000, 0.000, 15:34:06.233
86, -4439.89, -4854.31, -4343.85, -4462.09, 0.000, 0.000, 0.000, 15:34:06.233
87, -4433.28, -4839.66, -4318.67, -4473.39, 0.000, 0.000, 0.000, 15:34:06.248
88, -4411.17, -4822.16, -4271.64, -4469.43, 0.000, 0.000, 0.000, 15:34:06.248
89, -4414.66, -4836.03, -4305.16, -4459.12, 0.000, 0.000, 0.000, 15:34:06.248
90, -4421.39, -4825.06, -4325.27, -4466.99, 0.000, 0.000, 0.000, 15:34:06.248
91, -4409.70, -4841.71, -4282.10, -4450.97, 0.000, 0.000, 0.000, 15:34:06.266
92, -4426.91, -4869.30, -4233.31, -4496.61, 0.000, 0.000, 0.000, 15:34:06.267
93, -4444.99, -4863.25, -4285.45, -4492.09, 0.000, 0.000, 0.000, 15:34:06.278
94, -4437.58, -4857.34, -4289.80, -4486.28, 0.000, 0.000, 0.000, 15:34:06.278
95, -4437.08, -4859.75, -4305.59, -4416.58, 0.000, 0.000, 0.000, 15:34:06.279
96, -4423.80, -4836.41, -4304.19, -4402.88, 0.000, 0.000, 0.000, 15:34:06.279
97, -4420.34, -4836.80, -4322.77, -4433.56, 0.000, 0.000, 0.000, 15:34:06.296
98, -4451.50, -4847.56, -4334.80, -4433.42, 0.000, 0.000, 0.000, 15:34:06.297
99, -4461.63, -4842.00, -4330.00, -4447.67, 0.000, 0.000, 0.000, 15:34:06.308
100, -4449.92, -4843.61, -4279.63, -4460.94, 0.000, 0.000, 0.000, 15:34:06.308
101, -4449.13, -4839.37, -4340.48, -4479.74, 0.000, 0.000, 0.000, 15:34:06.309
102, -4442.39, -4849.20, -4316.85, -4417.62, 0.000, 0.000, 0.000, 15:34:06.309
103, -4442.84, -4838.60, -4247.48, -4384.89, 0.000, 0.000, 0.000, 15:34:06.325
104, -4435.18, -4843.26, -4337.92, -4447.22, 0.000, 0.000, 0.000, 15:34:06.325
105, -4438.70, -4827.27, -4281.05, -4483.31, 0.000, 0.000, 0.000, 15:34:06.343
106, -4440.73, -4829.14, -4282.85, -4424.69, 0.000, 0.000, 0.000, 15:34:06.343
107, -4438.91, -4848.76, -4296.78, -4488.29, 0.000, 0.000, 0.000, 15:34:06.343
108, -4439.90, -4841.49, -4351.09, -4442.30, 0.000, 0.000, 0.000, 15:34:06.343
109, -4440.73, -4858.28, -4338.48, -4472.31, 0.000, 0.000, 0.000, 15:34:06.369
110, -4442.94, -4838.43, -4333.02, -4470.65, 0.000, 0.000, 0.000, 15:34:06.370
111, -4457.14, -4858.66, -4346.16, -4507.88, 0.000, 0.000, 0.000, 15:34:06.371
112, -4431.19, -4844.12, -4332.29, -4457.81, 0.000, 0.000, 0.000, 15:34:06.371
113, -4446.01, -4844.42, -4258.44, -4427.75, 0.000, 0.000, 0.000, 15:34:06.371
114, -4459.33, -4844.41, -4324.73, -4496.92, 0.000, 0.000, 0.000, 15:34:06.371
115, -4453.99, -4848.95, -4279.58, -4400.77, 0.000, 0.000, 0.000, 15:34:06.383
116, -4419.97, -4842.39, -4265.30, -4485.54, 0.000, 0.000, 0.000, 15:34:06.383
117, -4436.61, -4854.30, -4299.61, -4474.98, 0.000, 0.000, 0.000, 15:34:06.400
118, -4466.32, -4867.01, -4303.64, -4487.75, 0.000, 0.000, 0.000, 15:34:06.400
119, -4438.09, -4856.34, -4358.12, -4500.29, 0.000, 0.000, 0.000, 15:34:06.401
120, -4462.39, -4865.66, -4334.96, -4484.96, 0.000, 0.000, 0.000, 15:34:06.401
121, -4445.89, -4842.74, -4323.54, -4451.15, 0.000, 0.000, 0.000, 15:34:06.413
122, -4443.35, -4845.00, -4318.12, -4434.00, 0.000, 0.000, 0.000, 15:34:06.413
123, -4432.52, -4835.73, -4334.45, -4401.65, 0.000, 0.000, 0.000, 15:34:06.444
124, -4432.27, -4821.83, -4291.43, -4424.12, 0.000, 0.000, 0.000, 15:34:06.445
125, -4402.09, -4807.58, -4271.90, -4466.57, 0.000, 0.000, 0.000, 15:34:06.446
126, -4442.02, -4830.03, -4286.31, -4492.35, 0.000, 0.000, 0.000, 15:34:06.446
127, -4413.94, -4807.34, -4257.98, -4394.04, 0.000, 0.000, 0.000, 15:34:06.447
128, -4457.41, -4818.74, -4268.09, -4490.10, 0.000, 0.000, 0.000, 15:34:06.447
129, -4488.41, -4901.17, -4357.82, -4486.74, 0.000, 0.000, 0.000, 15:34:06.447
130, -4481.32, -4879.63, -4323.26, -4544.96, 0.000, 0.000, 0.000, 15:34:06.447
131, -4473.73, -4867.30, -4305.28, -4471.30, 0.000, 0.000, 0.000, 15:34:06.465
132, -4470.96, -4859.74, -4321.33, -4465.71, 0.000, 0.000, 0.000, 15:34:06.466
133, -4477.06, -4850.27, -4258.26, -4524.79, 0.000, 0.000, 0.000, 15:34:06.477
134, -4487.25, -4854.63, -4359.92, -4499.14, 0.000, 0.000, 0.000, 15:34:06.477
135, -4475.31, -4852.05, -4329.43, -4500.01, 0.000, 0.000, 0.000, 15:34:06.488
136, -4470.08, -4837.79, -4316.79, -4501.38, 0.000, 0.000, 0.000, 15:34:06.488
137, -4452.17, -4835.11, -4322.27, -4464.49, 0.000, 0.000, 0.000, 15:34:06.488
138, -4468.62, -4834.98, -4317.96, -4462.51, 0.000, 0.000, 0.000, 15:34:06.489
139, -4471.12, -4841.79, -4331.48, -4448.95, 0.000, 0.000, 0.000, 15:34:06.607
140, -4474.08, -4841.92, -4270.80, -4501.94, 0.000, 0.000, 0.000, 15:34:06.609
141, -4484.69, -4843.23, -4339.99, -4415.45, 0.000, 0.000, 0.000, 15:34:06.610
142, -4466.80, -4841.14, -4294.62, -4490.65, 0.000, 0.000, 0.000, 15:34:06.610
143, -4457.09, -4830.31, -4293.48, -4404.12, 0.000, 0.000, 0.000, 15:34:06.610
144, -4468.32, -4847.27, -4331.93, -4451.15, 0.000, 0.000, 0.000, 15:34:06.611
145, -4493.16, -4870.78, -4320.09, -4466.33, 0.000, 0.000, 0.000, 15:34:06.611
146, -4476.85, -4867.47, -4363.40, -4497.38, 0.000, 0.000, 0.000, 15:34:06.611
147, -4480.53, -4851.07, -4250.84, -4432.41, 0.000, 0.000, 0.000, 15:34:06.612
148, -4464.84, -4855.35, -4312.02, -4467.88, 0.000, 0.000, 0.000, 15:34:06.612
149, -4479.64, -4872.81, -4300.40, -4513.45, 0.000, 0.000, 0.000, 15:34:06.612
150, -4458.36, -4854.22, -4325.59, -4449.15, 0.000, 0.000, 0.000, 15:34:06.612
151, -4459.64, -4853.29, -4317.59, -4494.93, 0.000, 0.000, 0.000, 15:34:06.658
152, -4448.30, -4854.30, -4277.57, -4466.25, 0.000, 0.000, 0.000, 15:34:06.658
153, -4491.73, -4871.07, -4363.84, -4493.46, 0.000, 0.000, 0.000, 15:34:06.659
154, -4476.87, -4873.08, -4277.95, -4493.04, 0.000, 0.000, 0.000, 15:34:06.659
155, -4447.03, -4841.55, -4324.72, -4466.23, 0.000, 0.000, 0.000, 15:34:06.659
156, -4419.82, -4831.09, -4309.11, -4469.00, 0.000, 0.000, 0.000, 15:34:06.659
157, -4427.26, -4843.59, -4341.12, -4406.19, 0.000, 0.000, 0.000, 15:34:06.660
158, -4434.40, -4851.87, -4317.31, -4486.92, 0.000, 0.000, 0.000, 15:34:06.660
159, -4444.59, -4860.52, -4345.02, -4502.22, 0.000, 0.000, 0.000, 15:34:06.660
160, -4436.71, -4866.74, -4329.52, -4488.12, 0.000, 0.000, 0.000, 15:34:06.660
161, -4448.13, -4871.86, -4253.33, -4489.76, 0.000, 0.000, 0.000, 15:34:06.660
162, -4446.52, -4861.88, -4230.51, -4485.76, 0.000, 0.000, 0.000, 15:34:06.660
163, -4442.89, -4853.11, -4311.76, -4475.09, 0.000, 0.000, 0.000, 15:34:06.673
164, -4451.74, -4851.79, -4317.80, -4436.44, 0.000, 0.000, 0.000, 15:34:06.673
165, -4445.05, -4855.60, -4292.52, -4491.99, 0.000, 0.000, 0.000, 15:34:06.673
166, -4442.87, -4866.02, -4287.35, -4501.21, 0.000, 0.000, 0.000, 15:34:06.673
167, -4460.24, -4867.32, -4328.70, -4488.15, 0.000, 0.000, 0.000, 15:34:06.673
168, -4466.78, -4860.37, -4268.04, -4466.26, 0.000, 0.000, 0.000, 15:34:06.674
169, -4457.46, -4858.32, -4354.91, -4494.98, 0.000, 0.000, 0.000, 15:34:06.676
170, -4462.01, -4852.53, -4325.01, -4473.46, 0.000, 0.000, 0.000, 15:34:06.676
171, -4447.78, -4855.57, -4319.15, -4479.24, 0.000, 0.000, 0.000, 15:34:06.677
172, -4432.16, -4849.63, -4299.30, -4439.72, 0.000, 0.000, 0.000, 15:34:06.677
173, -4422.99, -4850.50, -4285.93, -4468.88, 0.000, 0.000, 0.000, 15:34:06.677
174, -4442.39, -4866.80, -4331.86, -4504.77, 0.000, 0.000, 0.000, 15:34:06.677
175, -4417.02, -4852.10, -4305.34, -4459.89, 0.000, 0.000, 0.000, 15:34:06.692
176, -4423.94, -4845.59, -4346.94, -4455.21, 0.000, 0.000, 0.000, 15:34:06.692
177, -4422.85, -4848.35, -4356.42, -4467.39, 0.000, 0.000, 0.000, 15:34:06.698
178, -4428.39, -4853.14, -4337.94, -4414.60, 0.000, 0.000, 0.000, 15:34:06.698
179, -4428.84, -4837.17, -4283.94, -4449.75, 0.000, 0.000, 0.000, 15:34:06.699
180, -4450.31, -4853.65, -4286.74, -4476.81, 0.000, 0.000, 0.000, 15:34:06.699
181, -4438.00, -4858.48, -4327.34, -4488.04, 0.000, 0.000, 0.000, 15:34:06.713
182, -4434.41, -4861.37, -4296.52, -4456.14, 0.000, 0.000, 0.000, 15:34:06.713
183, -4427.96, -4850.52, -4310.36, -4481.08, 0.000, 0.000, 0.000, 15:34:06.728
184, -4423.08, -4848.17, -4320.05, -4416.59, 0.000, 0.000, 0.000, 15:34:06.728
185, -4431.67, -4842.67, -4307.44, -4473.92, 0.000, 0.000, 0.000, 15:34:06.728
186, -4419.31, -4859.17, -4311.64, -4444.73, 0.000, 0.000, 0.000, 15:34:06.728
187, -4435.89, -4875.81, -4250.30, -4503.93, 0.000, 0.000, 0.000, 15:34:06.743
188, -4447.86, -4860.51, -4313.23, -4454.85, 0.000, 0.000, 0.000, 15:34:06.743
189, -4440.70, -4855.85, -4341.64, -4502.07, 0.000, 0.000, 0.000, 15:34:06.759
190, -4460.19, -4858.58, -4294.99, -4476.94, 0.000, 0.000, 0.000, 15:34:06.759
191, -4449.29, -4858.61, -4314.67, -4462.68, 0.000, 0.000, 0.000, 15:34:06.759
192, -4432.10, -4856.43, -4322.37, -4507.09, 0.000, 0.000, 0.000, 15:34:06.760
193, -4439.01, -4862.34, -4313.07, -4492.49, 0.000, 0.000, 0.000, 15:34:06.773
194, -4434.15, -4848.08, -4353.39, -4472.20, 0.000, 0.000, 0.000, 15:34:06.773
195, -4449.29, -4869.04, -4311.93, -4447.17, 0.000, 0.000, 0.000, 15:34:06.788
196, -4449.03, -4871.76, -4314.17, -4511.74, 0.000, 0.000, 0.000, 15:34:06.788
197, -4455.13, -4873.52, -4389.35, -4500.08, 0.000, 0.000, 0.000, 15:34:06.788
198, -4447.60, -4870.97, -4356.04, -4513.15, 0.000, 0.000, 0.000, 15:34:06.788
199, -4432.04, -4853.17, -4344.81, -4475.10, 0.000, 0.000, 0.000, 15:34:06.803
200, -4411.08, -4827.74, -4334.80, -4444.68, 0.000, 0.000, 0.000, 15:34:06.803
0, -4409.39, -4836.88, -4335.72, -4460.07, 0.000, 0.000, 0.000, 15:34:06.804
1, -4416.46, -4834.88, -4269.84, -4463.07, 0.000, 0.000, 0.000, 15:34:06.825
2, -4425.36, -4850.83, -4335.27, -4436.71, 0.000, 0.000, 0.000, 15:34:06.825
3, -4420.61, -4858.20, -4277.67, -4478.08, 0.000, 0.000, 0.000, 15:34:06.849
4, -4425.92, -4860.67, -4294.26, -4455.69, 0.000, 0.000, 0.000, 15:34:06.849
5, -4433.71, -4866.89, -4305.78, -4468.26, 0.000, 0.000, 0.000, 15:34:06.850
6, -4429.38, -4857.57, -4259.13, -4480.93, 0.000, 0.000, 0.000, 15:34:06.850
7, -4434.53, -4874.67, -4328.38, -4530.42, 0.000, 0.000, 0.000, 15:34:06.851
8, -4479.31, -4888.31, -4321.17, -4516.90, 0.000, 0.000, 0.000, 15:34:06.851
9, -4447.00, -4889.70, -4367.04, -4509.57, 0.000, 0.000, 0.000, 15:34:06.851
10, -4442.16, -4872.05, -4314.89, -4490.31, 0.000, 0.000, 0.000, 15:34:06.851
11, -4450.62, -4876.01, -4367.56, -4447.36, 0.000, 0.000, 0.000, 15:34:06.876
12, -4431.90, -4861.84, -4290.60, -4496.69, 0.000, 0.000, 0.000, 15:34:06.876
13, -4418.60, -4842.43, -4331.16, -4468.88, 0.000, 0.000, 0.000, 15:34:06.893
14, -4427.47, -4842.22, -4240.05, -4460.55, 0.000, 0.000, 0.000, 15:34:06.893
15, -4409.95, -4848.59, -4334.79, -4464.18, 0.000, 0.000, 0.000, 15:34:06.908
16, -4419.61, -4844.58, -4280.35, -4491.87, 0.000, 0.000, 0.000, 15:34:06.908
17, -4417.33, -4856.37, -4324.70, -4493.02, 0.000, 0.000, 0.000, 15:34:06.909
18, -4419.35, -4838.99, -4313.66, -4448.95, 0.000, 0.000, 0.000, 15:34:06.909
19, -4419.77, -4848.54, -4261.03, -4415.27, 0.000, 0.000, 0.000, 15:34:06.924
20, -4438.14, -4850.12, -4296.73, -4461.02, 0.000, 0.000, 0.000, 15:34:06.924
21, -4410.88, -4848.74, -4335.95, -4461.69, 0.000, 0.000, 0.000, 15:34:06.924
22, -4430.06, -4839.65, -4297.00, -4397.21, 0.000, 0.000, 0.000, 15:34:06.924
23, -4426.47, -4851.46, -4319.10, -4458.49, 0.000, 0.000, 0.000, 15:34:06.925
24, -4423.82, -4854.83, -4347.19, -4478.88, 0.000, 0.000, 0.000, 15:34:06.925
25, -4434.74, -4873.49, -4361.12, -4476.70, 0.000, 0.000, 0.000, 15:34:06.941
26, -4417.93, -4859.73, -4325.78, -4488.61, 0.000, 0.000, 0.000, 15:34:06.941
27, -4415.27, -4849.98, -4335.83, -4454.94, 0.000, 0.000, 0.000, 15:34:06.953
28, -4417.17, -4849.69, -4249.59, -4485.53, 0.000, 0.000, 0.000, 15:34:06.954
29, -4422.85, -4854.64, -4324.12, -4472.71, 0.000, 0.000, 0.000, 15:34:06.954
30, -4412.95, -4847.86, -4288.64, -4436.98, 0.000, 0.000, 0.000, 15:34:06.954
31, -4419.57, -4842.86, -4229.55, -4440.67, 0.000, 0.000, 0.000, 15:34:06.973
32, -4415.33, -4844.87, -4317.94, -4442.27, 0.000, 0.000, 0.000, 15:34:06.973
33, -4433.77, -4854.32, -4313.48, -4423.32, 0.000, 0.000, 0.000, 15:34:06.983
34, -4418.30, -4854.52, -4262.03, -4393.34, 0.000, 0.000, 0.000, 15:34:06.984
35, -4424.58, -4846.43, -4332.20, -4409.07, 0.000, 0.000, 0.000, 15:34:06.984
36, -4440.86, -4857.40, -4343.00, -4455.61, 0.000, 0.000, 0.000, 15:34:06.984
37, -4430.18, -4871.27, -4352.95, -4483.76, 0.000, 0.000, 0.000, 15:34:06.998
38, -4418.67, -4863.69, -4243.93, -4487.09, 0.000, 0.000, 0.000, 15:34:06.999
39, -4428.04, -4863.02, -4320.02, -4487.44, 0.000, 0.000, 0.000, 15:34:07.013
40, -4421.13, -4863.61, -4281.88, -4480.89, 0.000, 0.000, 0.000, 15:34:07.013
41, -4423.45, -4867.70, -4344.36, -4486.63, 0.000, 0.000, 0.000, 15:34:07.013
42, -4407.12, -4851.76, -4288.48, -4462.87, 0.000, 0.000, 0.000, 15:34:07.013
43, -4435.93, -4858.00, -4284.68, -4471.71, 0.000, 0.000, 0.000, 15:34:07.028
44, -4423.64, -4857.23, -4320.30, -4507.20, 0.000, 0.000, 0.000, 15:34:07.028
45, -4423.78, -4856.06, -4298.56, -4478.29, 0.000, 0.000, 0.000, 15:34:07.045
46, -4416.23, -4854.09, -4292.88, -4467.47, 0.000, 0.000, 0.000, 15:34:07.045
47, -4415.77, -4845.33, -4336.54, -4436.63, 0.000, 0.000, 0.000, 15:34:07.045
48, -4433.94, -4856.10, -4289.52, -4504.84, 0.000, 0.000, 0.000, 15:34:07.045
49, -4420.46, -4847.11, -4303.14, -4454.60, 0.000, 0.000, 0.000, 15:34:07.059
50, -4427.71, -4840.51, -4291.62, -4463.06, 0.000, 0.000, 0.000, 15:34:07.059
51, -4418.54, -4850.89, -4332.28, -4413.75, 0.000, 0.000, 0.000, 15:34:07.073
52, -4434.11, -4861.93, -4302.93, -4502.13, 0.000, 0.000, 0.000, 15:34:07.073
53, -4428.71, -4858.14, -4317.69, -4511.76, 0.000, 0.000, 0.000, 15:34:07.073
54, -4439.96, -4851.53, -4308.88, -4457.35, 0.000, 0.000, 0.000, 15:34:07.073
55, -4414.84, -4858.25, -4322.08, -4457.28, 0.000, 0.000, 0.000, 15:34:07.090
56, -4431.01, -4871.99, -4369.16, -4477.66, 0.000, 0.000, 0.000, 15:34:07.090
57, -4440.10, -4873.09, -4313.94, -4526.98, 0.000, 0.000, 0.000, 15:34:07.109
58, -4425.25, -4852.51, -4292.16, -4483.96, 0.000, 0.000, 0.000, 15:34:07.109
59, -4421.75, -4840.91, -4302.29, -4448.09, 0.000, 0.000, 0.000, 15:34:07.109
60, -4434.28, -4843.15, -4303.70, -4468.33, 0.000, 0.000, 0.000, 15:34:07.109
61, -4406.73, -4843.33, -4340.99, -4467.12, 0.000, 0.000, 0.000, 15:34:07.119
62, -4424.14, -4830.11, -4299.95, -4453.24, 0.000, 0.000, 0.000, 15:34:07.119
63, -4400.88, -4825.41, -4303.47, -4441.69, 0.000, 0.000, 0.000, 15:34:07.141
64, -4423.97, -4846.81, -4324.23, -4414.97, 0.000, 0.000, 0.000, 15:34:07.141
65, -4437.43, -4842.78, -4285.01, -4449.80, 0.000, 0.000, 0.000, 15:34:07.141
66, -4419.69, -4840.29, -4329.10, -4482.61, 0.000, 0.000, 0.000, 15:34:07.141
67, -4441.31, -4847.59, -4338.06, -4398.59, 0.000, 0.000, 0.000, 15:34:07.148
68, -4433.84, -4859.04, -4361.49, -4414.50, 0.000, 0.000, 0.000, 15:34:07.148
69, -4431.78, -4853.26, -4234.50, -4490.88, 0.000, 0.000, 0.000, 15:34:07.163
70, -4443.55, -4862.83, -4339.28, -4484.94, 0.000, 0.000, 0.000, 15:34:07.163
71, -4452.39, -4854.39, -4323.70, -4479.68, 0.000, 0.000, 0.000, 15:34:07.163
72, -4443.22, -4872.47, -4331.37, -4498.54, 0.000, 0.000, 0.000, 15:34:07.163
73, -4433.45, -4862.98, -4342.90, -4467.82, 0.000, 0.000, 0.000, 15:34:07.178
74, -4405.84, -4852.90, -4348.92, -4482.69, 0.000, 0.000, 0.000, 15:34:07.178
75, -4420.93, -4845.41, -4310.87, -4488.34, 0.000, 0.000, 0.000, 15:34:07.194
76, -4427.08, -4843.14, -4299.26, -4469.91, 0.000, 0.000, 0.000, 15:34:07.194
77, -4425.72, -4849.48, -4273.08, -4448.02, 0.000, 0.000, 0.000, 15:34:07.194
78, -4426.44, -4853.19, -4264.83, -4503.48, 0.000, 0.000, 0.000, 15:34:07.194
79, -4426.45, -4841.87, -4259.36, -4435.36, 0.000, 0.000, 0.000, 15:34:07.209
80, -4435.78, -4853.43, -4327.84, -4466.83, 0.000, 0.000, 0.000, 15:34:07.209
81, -4418.72, -4846.35, -4283.41, -4422.60, 0.000, 0.000, 0.000, 15:34:07.224
82, -4411.71, -4845.56, -4320.04, -4486.09, 0.000, 0.000, 0.000, 15:34:07.224
83, -4410.68, -4828.64, -4245.43, -4392.59, 0.000, 0.000, 0.000, 15:34:07.224
84, -4425.86, -4841.29, -4266.83, -4526.25, 0.000, 0.000, 0.000, 15:34:07.224
85, -4424.30, -4856.86, -4362.00, -4459.30, 0.000, 0.000, 0.000, 15:34:07.244
86, -4423.54, -4857.77, -4308.69, -4442.21, 0.000, 0.000, 0.000, 15:34:07.244
87, -4435.15, -4847.91, -4356.74, -4486.60, 0.000, 0.000, 0.000, 15:34:07.253
88, -4438.16, -4861.93, -4356.23, -4471.39, 0.000, 0.000, 0.000, 15:34:07.253
89, -4448.13, -4875.81, -4318.51, -4496.81, 0.000, 0.000, 0.000, 15:34:07.253
90, -4449.47, -4866.23, -4312.85, -4478.17, 0.000, 0.000, 0.000, 15:34:07.254
91, -4422.39, -4851.73, -4349.25, -4477.92, 0.000, 0.000, 0.000, 15:34:07.279
92, -4410.27, -4842.79, -4349.08, -4467.92, 0.000, 0.000, 0.000, 15:34:07.279
93, -4446.59, -4845.88, -4294.76, -4481.66, 0.000, 0.000, 0.000, 15:34:07.283
94, -4410.71, -4837.70, -4283.80, -4419.43, 0.000, 0.000, 0.000, 15:34:07.283
95, -4410.46, -4834.47, -4320.92, -4445.83, 0.000, 0.000, 0.000, 15:34:07.284
96, -4409.89, -4835.56, -4320.35, -4420.07, 0.000, 0.000, 0.000, 15:34:07.284
97, -4407.86, -4826.21, -4269.95, -4494.33, 0.000, 0.000, 0.000, 15:34:07.308
98, -4406.66, -4821.68, -4265.82, -4413.56, 0.000, 0.000, 0.000, 15:34:07.309
99, -4407.20, -4812.39, -4297.47, -4446.48, 0.000, 0.000, 0.000, 15:34:07.313
100, -4427.24, -4826.71, -4305.23, -4441.91, 0.000, 0.000, 0.000, 15:34:07.313
101, -4418.47, -4830.05, -4286.73, -4474.21, 0.000, 0.000, 0.000, 15:34:07.313
102, -4417.57, -4842.68, -4275.19, -4447.52, 0.000, 0.000, 0.000, 15:34:07.313
103, -4424.29, -4847.74, -4292.67, -4471.83, 0.000, 0.000, 0.000, 15:34:07.328
104, -4429.62, -4851.74, -4261.40, -4443.44, 0.000, 0.000, 0.000, 15:34:07.328
105, -4429.48, -4854.83, -4324.13, -4466.13, 0.000, 0.000, 0.000, 15:34:07.344
106, -4417.92, -4838.69, -4320.72, -4426.05, 0.000, 0.000, 0.000, 15:34:07.344
107, -4422.16, -4845.65, -4345.12, -4422.09, 0.000, 0.000, 0.000, 15:34:07.344
108, -4427.50, -4851.68, -4303.83, -4540.49, 0.000, 0.000, 0.000, 15:34:07.344
109, -4425.75, -4853.67, -4303.98, -4481.33, 0.000, 0.000, 0.000, 15:34:07.358
110, -4423.07, -4843.69, -4239.90, -4444.93, 0.000, 0.000, 0.000, 15:34:07.358
111, -4418.19, -4850.59, -4264.30, -4490.92, 0.000, 0.000, 0.000, 15:34:07.394
112, -4436.16, -4854.21, -4298.10, -4476.40, 0.000, 0.000, 0.000, 15:34:07.394
113, -4429.83, -4856.77, -4360.74, -4468.61, 0.000, 0.000, 0.000, 15:34:07.395
114, -4419.37, -4850.54, -4361.95, -4475.51, 0.000, 0.000, 0.000, 15:34:07.395
115, -4406.81, -4837.03, -4361.85, -4420.11, 0.000, 0.000, 0.000, 15:34:07.395
116, -4415.38, -4842.55, -4283.19, -4458.60, 0.000, 0.000, 0.000, 15:34:07.395
117, -4405.65, -4825.68, -4287.40, -4420.36, 0.000, 0.000, 0.000, 15:34:07.395
118, -4425.70, -4843.20, -4319.95, -4450.96, 0.000, 0.000, 0.000, 15:34:07.395
119, -4415.09, -4834.73, -4310.72, -4415.77, 0.000, 0.000, 0.000, 15:34:07.404
